%OpenBCI Raw EXG Data
%Number of channels = 8
%Sample Rate = 250 Hz
%Board = OpenBCI_GUI$BoardCytonSerial
Sample Index, EXG Channel 0, EXG Channel 1, EXG Channel 2, EXG Channel 3, EXG Channel 4, EXG Channel 5, EXG Channel 6, EXG Channel 7, Accel Channel 0, Accel Channel 1, Accel Channel 2, Other, Other, Other, Other, Other, Other, Other, Analog Channel 0, Analog Channel 1, Analog Channel 2, Timestamp, Other, Timestamp (Formatted)
32.0, 47844.981890318624, 67727.59619088128, 10403.842974167226, -187500.02235174447, 75073.7205235625, -187500.02235174447, -155853.9308135427, -187500.02235174447, 0.0, 0.0, 0.0, 192.0, 0.0, 0.0, 0.0, 0.0, 0.0, 0.0, 0.0, 0.0, 0.0, 1.7184687390886033E9, 0.0, 2024-06-15 11:25:39.088
33.0, 49700.087273131285, 69595.01738488882, 4168.488582192491, -187500.02235174447, 75368.92001258374, -187500.02235174447, -158360.0754571051, -187500.02235174447, 0.0, 0.0, 0.0, 192.0, 0.0, 0.0, 0.0, 0.0, 0.0, 0.0, 0.0, 0.0, 0.0, 1.7184687390886238E9, 0.0, 2024-06-15 11:25:39.088
34.0, 49340.38064961203, 69222.57026703004, 1277.2680851540667, -187500.02235174447, 76380.40350441975, -187500.02235174447, -159511.07853783114, -187500.02235174447, 0.0, 0.0, 0.0, 192.0, 0.0, 0.0, 0.0, 0.0, 0.0, 0.0, 0.0, 0.0, 0.0, 1.7184687390886579E9, 0.0, 2024-06-15 11:25:39.088
35.0, 47574.03404403139, 67453.51910037031, 6139.800684428297, -187500.02235174447, 76346.22768714759, -187500.02235174447, -157528.36704592314, -187500.02235174447, 0.0, 0.0, 0.0, 192.0, 0.0, 0.0, 0.0, 0.0, 0.0, 0.0, 0.0, 0.0, 0.0, 1.7184687390886703E9, 0.0, 2024-06-15 11:25:39.088
36.0, 47529.03998244286, 67413.53182953976, 10515.22171678802, -187500.02235174447, 75230.8532870833, -187500.02235174447, -155721.94376253412, -187500.02235174447, 0.0, 0.0, 0.0, 192.0, 0.0, 0.0, 0.0, 0.0, 0.0, 0.0, 0.0, 0.0, 0.0, 1.718468739088682E9, 0.0, 2024-06-15 11:25:39.088
37.0, 49494.36181716464, 69387.03440273218, 5259.901912200679, -187500.02235174447, 75187.75912377347, -187500.02235174447, -157885.8161432524, -187500.02235174447, 0.0, 0.0, 0.0, 192.0, 0.0, 0.0, 0.0, 0.0, 0.0, 0.0, 0.0, 0.0, 0.0, 1.718468739088693E9, 0.0, 2024-06-15 11:25:39.088
38.0, 49554.28684404932, 69442.15380455897, 1164.525886121498, -187500.02235174447, 76258.98882853852, -187500.02235174447, -159535.1513666095, -187500.02235174447, 0.0, 0.0, 0.0, 192.0, 0.0, 0.0, 0.0, 0.0, 0.0, 0.0, 0.0, 0.0, 0.0, 1.7184687390887036E9, 0.0, 2024-06-15 11:25:39.088
39.0, 47914.31700161898, 67796.73013648155, 4725.069370874092, -187500.02235174447, 76474.70551427669, -187500.02235174447, -158081.93034910326, -187500.02235174447, -0.15, 0.992, 0.07200000000000001, 192.0, 251.0, 80.0, 31.0, 0.0, 2.0, 64.0, 0.0, 0.0, 0.0, 1.7184687390887148E9, 0.0, 2024-06-15 11:25:39.088
40.0, 47314.306773460725, 67206.0182340167, 10116.645409660985, -187500.02235174447, 75470.97807776667, -187500.02235174447, -155826.50522309606, -187500.02235174447, -0.15, 0.992, 0.07200000000000001, 192.0, 0.0, 0.0, 0.0, 0.0, 0.0, 0.0, 0.0, 0.0, 0.0, 1.7184687390887256E9, 0.0, 2024-06-15 11:25:39.088
41.0, 49208.97474395928, 69107.65994878531, 6308.824575999329, -187500.02235174447, 75073.89933751815, -187500.02235174447, -157436.54607970073, -187500.02235174447, -0.15, 0.992, 0.07200000000000001, 192.0, 0.0, 0.0, 0.0, 0.0, 0.0, 0.0, 0.0, 0.0, 0.0, 1.7184687390887368E9, 0.0, 2024-06-15 11:25:39.088
42.0, 49696.041607384876, 69602.25935009234, 1284.644160824318, -187500.02235174447, 76121.63735886067, -187500.02235174447, -159512.08436633163, -187500.02235174447, -0.15, 0.992, 0.07200000000000001, 192.0, 0.0, 0.0, 0.0, 0.0, 0.0, 0.0, 0.0, 0.0, 0.0, 1.7184687390887485E9, 0.0, 2024-06-15 11:25:39.088
43.0, 48209.762359829234, 68122.79738459556, 3507.7263126047033, -187500.02235174447, 76497.81721804348, -187500.02235174447, -158583.74936386937, -187500.02235174447, -0.15, 0.992, 0.07200000000000001, 192.0, 0.0, 0.0, 0.0, 0.0, 0.0, 0.0, 0.0, 0.0, 0.0, 1.7184687390887592E9, 0.0, 2024-06-15 11:25:39.088
44.0, 47188.0864725216, 67107.84937236898, 9350.695830666522, -187500.02235174447, 75690.87453971799, -187500.02235174447, -156096.9389792608, -187500.02235174447, -0.15, 0.992, 0.07200000000000001, 192.0, 0.0, 0.0, 0.0, 0.0, 0.0, 0.0, 0.0, 0.0, 0.0, 1.7184687390887709E9, 0.0, 2024-06-15 11:25:39.088
45.0, 48796.294486080944, 68711.27411261489, 7291.496669232449, -187500.02235174447, 74966.90153681059, -187500.02235174447, -156984.61615855887, -187500.02235174447, -0.15, 0.992, 0.07200000000000001, 192.0, 0.0, 0.0, 0.0, 0.0, 0.0, 0.0, 0.0, 0.0, 0.0, 1.7184687390887816E9, 0.0, 2024-06-15 11:25:39.088
46.0, 49670.0241768389, 69597.2749110788, 1755.7965821977357, -187500.02235174447, 75865.19579472492, -187500.02235174447, -159302.49205857422, -187500.02235174447, -0.15, 0.992, 0.07200000000000001, 192.0, 0.0, 0.0, 0.0, 0.0, 0.0, 0.0, 0.0, 0.0, 0.0, 1.7184687390887926E9, 0.0, 2024-06-15 11:25:39.088
47.0, 48497.4963662024, 68410.28552177972, 2619.356229228524, -187500.02235174447, 76480.09228469041, -187500.02235174447, -158933.3082954059, -187500.02235174447, -0.15, 0.992, 0.07200000000000001, 192.0, 0.0, 0.0, 0.0, 0.0, 0.0, 0.0, 0.0, 0.0, 0.0, 1.7184687390888033E9, 0.0, 2024-06-15 11:25:39.088
48.0, 47187.125347510024, 67113.10203231598, 8383.602903318751, -187500.02235174447, 75924.96435939841, -187500.02235174447, -156424.88377390907, -187500.02235174447, -0.15, 0.992, 0.07200000000000001, 192.0, 0.0, 0.0, 0.0, 0.0, 0.0, 0.0, 0.0, 0.0, 0.0, 1.7184687390888166E9, 0.0, 2024-06-15 11:25:39.088
49.0, 48450.84827552418, 68374.90271030697, 8080.803821182707, -187500.02235174447, 75006.93351113005, -187500.02235174447, -156570.55009252433, -187500.02235174447, -0.14, 0.99, 0.08600000000000001, 192.0, 251.0, 160.0, 30.0, 240.0, 2.0, 176.0, 0.0, 0.0, 0.0, 1.7184687390888288E9, 0.0, 2024-06-15 11:25:39.088
50.0, 49684.91043864613, 69618.66553052253, 2388.1274328383724, -187500.02235174447, 75694.54022580865, -187500.02235174447, -159031.25363960906, -187500.02235174447, -0.14, 0.99, 0.08600000000000001, 192.0, 0.0, 0.0, 0.0, 0.0, 0.0, 0.0, 0.0, 0.0, 0.0, 1.71846873908884E9, 0.0, 2024-06-15 11:25:39.088
51.0, 48786.102090609325, 68713.53163880488, 1934.2082064399967, -187500.02235174447, 76444.88828717331, -187500.02235174447, -159233.3357612295, -187500.02235174447, -0.14, 0.99, 0.08600000000000001, 192.0, 0.0, 0.0, 0.0, 0.0, 0.0, 0.0, 0.0, 0.0, 0.0, 1.718468739088851E9, 0.0, 2024-06-15 11:25:39.088
52.0, 47287.75290104782, 67247.65953393692, 7204.794252490313, -187500.02235174447, 76107.55575985381, -187500.02235174447, -156895.8797330713, -187500.02235174447, -0.14, 0.99, 0.08600000000000001, 192.0, 0.0, 0.0, 0.0, 0.0, 0.0, 0.0, 0.0, 0.0, 0.0, 1.718468739088863E9, 0.0, 2024-06-15 11:25:39.088
53.0, 48084.36907343496, 68029.36709277239, 8539.17104472769, -187500.02235174447, 75069.719561305, -187500.02235174447, -156311.15809812048, -187500.02235174447, -0.14, 0.99, 0.08600000000000001, 192.0, 0.0, 0.0, 0.0, 0.0, 0.0, 0.0, 0.0, 0.0, 0.0, 1.7184687390888753E9, 0.0, 2024-06-15 11:25:39.088
54.0, 49620.64917333713, 69572.91150962251, 3116.593136381285, -187500.02235174447, 75517.2238370447, -187500.02235174447, -158729.10275806222, -187500.02235174447, -0.14, 0.99, 0.08600000000000001, 192.0, 0.0, 0.0, 0.0, 0.0, 0.0, 0.0, 0.0, 0.0, 0.0, 1.7184687390889072E9, 0.0, 2024-06-15 11:25:39.088
55.0, 49023.432913235774, 68971.26960411902, 1506.6863902433386, -187500.02235174447, 76371.61926884881, -187500.02235174447, -159435.90962122794, -187500.02235174447, -0.14, 0.99, 0.08600000000000001, 192.0, 0.0, 0.0, 0.0, 0.0, 0.0, 0.0, 0.0, 0.0, 0.0, 1.7184687390889406E9, 0.0, 2024-06-15 11:25:39.088
56.0, 47469.15965904709, 67434.09543443864, 5998.828232148676, -187500.02235174447, 76264.53206116344, -187500.02235174447, -157409.9475037989, -187500.02235174447, -0.14, 0.99, 0.08600000000000001, 192.0, 0.0, 0.0, 0.0, 0.0, 0.0, 0.0, 0.0, 0.0, 0.0, 1.7184687390889547E9, 0.0, 2024-06-15 11:25:39.088
57.0, 47777.2784563635, 67736.71570261904, 8732.267765077087, -187500.02235174447, 75231.2556184835, -187500.02235174447, -156158.98742186875, -187500.02235174447, -0.14, 0.99, 0.08600000000000001, 192.0, 0.0, 0.0, 0.0, 0.0, 0.0, 0.0, 0.0, 0.0, 0.0, 1.7184687390889695E9, 0.0, 2024-06-15 11:25:39.088
58.0, 49479.2296861684, 69434.71067365535, 3965.8253152162215, -187500.02235174447, 75350.36806468584, -187500.02235174447, -158347.87140463252, -187500.02235174447, -0.14, 0.99, 0.08600000000000001, 192.0, 0.0, 0.0, 0.0, 0.0, 0.0, 0.0, 0.0, 0.0, 0.0, 1.7184687390889804E9, 0.0, 2024-06-15 11:25:39.088
59.0, 49209.51118582621, 69174.58107168449, 1322.9550508207144, -187500.02235174447, 76244.61665685376, -187500.02235174447, -159534.52551776476, -187500.02235174447, -0.136, 0.978, 0.094, 192.0, 251.0, 192.0, 30.0, 144.0, 2.0, 240.0, 0.0, 0.0, 0.0, 1.718468739088992E9, 0.0, 2024-06-15 11:25:39.088
60.0, 47686.59742910832, 67663.24551859446, 4865.259512097778, -187500.02235174447, 76337.8681347213, -187500.02235174447, -157903.29520741646, -187500.02235174447, -0.136, 0.978, 0.094, 192.0, 0.0, 0.0, 0.0, 0.0, 0.0, 0.0, 0.0, 0.0, 0.0, 1.7184687390890028E9, 0.0, 2024-06-15 11:25:39.089
61.0, 47502.776682707874, 67484.36450771862, 8616.888060198791, -187500.02235174447, 75383.40394299077, -187500.02235174447, -156143.54236645013, -187500.02235174447, -0.136, 0.978, 0.094, 192.0, 0.0, 0.0, 0.0, 0.0, 0.0, 0.0, 0.0, 0.0, 0.0, 1.7184687390890293E9, 0.0, 2024-06-15 11:25:39.089
62.0, 49195.11666239699, 69175.31867925152, 4875.094279658113, -187500.02235174447, 75149.2917715659, -187500.02235174447, -157895.44974511265, -187500.02235174447, -0.136, 0.978, 0.094, 192.0, 0.0, 0.0, 0.0, 0.0, 0.0, 0.0, 0.0, 0.0, 0.0, 1.7184687390890405E9, 0.0, 2024-06-15 11:25:39.089
63.0, 49372.34364418312, 69357.44069307335, 1393.3630458549317, -187500.02235174447, 76095.84344575924, -187500.02235174447, -159491.56546492167, -187500.02235174447, -0.136, 0.978, 0.094, 192.0, 0.0, 0.0, 0.0, 0.0, 0.0, 0.0, 0.0, 0.0, 0.0, 1.7184687390890508E9, 0.0, 2024-06-15 11:25:39.089
64.0, 48007.523775997615, 67968.65975483177, 3850.2220928933734, -187500.02235174447, 76421.93304561771, -187500.02235174447, -158372.2348060888, -187500.02235174447, -0.136, 0.978, 0.094, 192.0, 0.0, 0.0, 0.0, 0.0, 0.0, 0.0, 0.0, 0.0, 0.0, 1.7184687390890858E9, 0.0, 2024-06-15 11:25:39.089
65.0, 47370.230838087904, 67345.38136069552, 8251.124113932146, -187500.02235174447, 75610.5423701456, -187500.02235174447, -156270.8355511231, -187500.02235174447, -0.136, 0.978, 0.094, 192.0, 0.0, 0.0, 0.0, 0.0, 0.0, 0.0, 0.0, 0.0, 0.0, 1.7184687390890968E9, 0.0, 2024-06-15 11:25:39.089
66.0, 48946.49820882061, 68929.0248070985, 5739.056258089096, -187500.02235174447, 75070.59127933875, -187500.02235174447, -157479.10380114365, -187500.02235174447, -0.136, 0.978, 0.094, 192.0, 0.0, 0.0, 0.0, 0.0, 0.0, 0.0, 0.0, 0.0, 0.0, 1.7184687390891123E9, 0.0, 2024-06-15 11:25:39.089
67.0, 49467.60677905164, 69474.36266831907, 1633.1302086270105, -187500.02235174447, 75927.4230512885, -187500.02235174447, -159387.58514971557, -187500.02235174447, -0.136, 0.978, 0.094, 192.0, 0.0, 0.0, 0.0, 0.0, 0.0, 0.0, 0.0, 0.0, 0.0, 1.7184687390891411E9, 0.0, 2024-06-15 11:25:39.089
68.0, 48257.05865109666, 68248.61535413448, 3060.5349612873747, -187500.02235174447, 76406.04095530999, -187500.02235174447, -158719.37974922417, -187500.02235174447, -0.136, 0.978, 0.094, 192.0, 0.0, 0.0, 0.0, 0.0, 0.0, 0.0, 0.0, 0.0, 0.0, 1.7184687390891695E9, 0.0, 2024-06-15 11:25:39.089
69.0, 47281.5614678337, 67280.1813221194, 7707.507337034624, -187500.02235174447, 75797.71587821435, -187500.02235174447, -156470.01194596433, -187500.02235174447, -0.136, 0.978, 0.094, 192.0, 0.0, 0.0, 0.0, 0.0, 0.0, 0.0, 0.0, 0.0, 0.0, 1.7184687390891986E9, 0.0, 2024-06-15 11:25:39.089
70.0, 48639.54170221588, 68623.85644005018, 6546.9824131706255, -187500.02235174447, 75031.63218875315, -187500.02235174447, -157063.89779614186, -187500.02235174447, -0.132, 0.968, 0.098, 192.0, 251.0, 224.0, 30.0, 64.0, 3.0, 16.0, 0.0, 0.0, 0.0, 1.7184687390892093E9, 0.0, 2024-06-15 11:25:39.089
71.0, 49567.85435293369, 69569.6705066765, 2004.996181129954, -187500.02235174447, 75792.79849443419, -187500.02235174447, -159246.99267709168, -187500.02235174447, -0.132, 0.968, 0.098, 192.0, 0.0, 0.0, 0.0, 0.0, 0.0, 0.0, 0.0, 0.0, 0.0, 1.7184687390892196E9, 0.0, 2024-06-15 11:25:39.089
72.0, 48546.446686559524, 68539.41154949804, 2380.5501914680235, -187500.02235174447, 76398.91074882874, -187500.02235174447, -159060.9814597346, -187500.02235174447, -0.132, 0.968, 0.098, 192.0, 0.0, 0.0, 0.0, 0.0, 0.0, 0.0, 0.0, 0.0, 0.0, 1.71846873908923E9, 0.0, 2024-06-15 11:25:39.089
73.0, 47330.66825040201, 67329.57867736563, 6954.789990757703, -187500.02235174447, 75998.36748818964, -187500.02235174447, -156807.0539006059, -187500.02235174447, -0.132, 0.968, 0.098, 192.0, 0.0, 0.0, 0.0, 0.0, 0.0, 0.0, 0.0, 0.0, 0.0, 1.7184687390892403E9, 0.0, 2024-06-15 11:25:39.089
74.0, 48287.45702355588, 68270.40830497841, 7189.639769749614, -187500.02235174447, 75052.86634598569, -187500.02235174447, -156716.50698381747, -187500.02235174447, -0.132, 0.968, 0.098, 192.0, 0.0, 0.0, 0.0, 0.0, 0.0, 0.0, 0.0, 0.0, 0.0, 1.7184687390892508E9, 0.0, 2024-06-15 11:25:39.089
75.0, 49494.27241018682, 69498.2566831418, 2609.700275623831, -187500.02235174447, 75536.60279948745, -187500.02235174447, -158943.54539436643, -187500.02235174447, -0.132, 0.968, 0.098, 192.0, 0.0, 0.0, 0.0, 0.0, 0.0, 0.0, 0.0, 0.0, 0.0, 1.718468739089264E9, 0.0, 2024-06-15 11:25:39.089
76.0, 48773.98744511455, 68770.59564239928, 1954.1459624941306, -187500.02235174447, 76318.55622751192, -187500.02235174447, -159247.59617419197, -187500.02235174447, -0.132, 0.968, 0.098, 192.0, 0.0, 0.0, 0.0, 0.0, 0.0, 0.0, 0.0, 0.0, 0.0, 1.7184687390892744E9, 0.0, 2024-06-15 11:25:39.089
77.0, 47412.609745575166, 67417.0634051637, 6136.425571015546, -187500.02235174447, 76157.51190871143, -187500.02235174447, -157164.9947363132, -187500.02235174447, -0.132, 0.968, 0.098, 192.0, 0.0, 0.0, 0.0, 0.0, 0.0, 0.0, 0.0, 0.0, 0.0, 1.7184687390892847E9, 0.0, 2024-06-15 11:25:39.089
78.0, 47973.50442093664, 67939.11074866186, 7657.931167832753, -187500.02235174447, 75160.6911612381, -187500.02235174447, -156423.43091051947, -187500.02235174447, -0.132, 0.968, 0.098, 192.0, 0.0, 0.0, 0.0, 0.0, 0.0, 0.0, 0.0, 0.0, 0.0, 1.718468739089295E9, 0.0, 2024-06-15 11:25:39.089
79.0, 49435.19674959144, 69457.33063904413, 3329.1358744067998, -187500.02235174447, 75412.08123112694, -187500.02235174447, -158580.79893360127, -187500.02235174447, -0.132, 0.968, 0.098, 192.0, 0.0, 0.0, 0.0, 0.0, 0.0, 0.0, 0.0, 0.0, 0.0, 1.7184687390893092E9, 0.0, 2024-06-15 11:25:39.089
80.0, 49026.49510222615, 69038.86127935187, 1668.2000956773873, -187500.02235174447, 76264.77793035244, -187500.02235174447, -159398.4704492653, -187500.02235174447, -0.128, 0.972, 0.088, 192.0, 252.0, 0.0, 30.0, 96.0, 2.0, 192.0, 0.0, 0.0, 0.0, 1.7184687390893197E9, 0.0, 2024-06-15 11:25:39.089
81.0, 47639.97169017455, 67670.21926286451, 5182.922504296602, -187500.02235174447, 76302.82059941538, -187500.02235174447, -157642.98679148994, -187500.02235174447, -0.128, 0.972, 0.088, 192.0, 0.0, 0.0, 0.0, 0.0, 0.0, 0.0, 0.0, 0.0, 0.0, 1.7184687390893302E9, 0.0, 2024-06-15 11:25:39.089
82.0, 47742.275624546484, 67764.27540353243, 7783.860896093953, -187500.02235174447, 75346.97059952863, -187500.02235174447, -156323.9879994378, -187500.02235174447, -0.128, 0.972, 0.088, 192.0, 0.0, 0.0, 0.0, 0.0, 0.0, 0.0, 0.0, 0.0, 0.0, 1.7184687390893404E9, 0.0, 2024-06-15 11:25:39.089
83.0, 49274.39829997996, 69280.01425028018, 4072.063156612296, -187500.02235174447, 75263.08450258787, -187500.02235174447, -158214.45384197877, -187500.02235174447, -0.128, 0.972, 0.088, 192.0, 0.0, 0.0, 0.0, 0.0, 0.0, 0.0, 0.0, 0.0, 0.0, 1.7184687390893507E9, 0.0, 2024-06-15 11:25:39.089
84.0, 49183.180830857855, 69200.330281297, 1597.9709145988124, -187500.02235174447, 76145.19609751656, -187500.02235174447, -159439.99999046326, -187500.02235174447, -0.128, 0.972, 0.088, 192.0, 0.0, 0.0, 0.0, 0.0, 0.0, 0.0, 0.0, 0.0, 0.0, 1.718468739089361E9, 0.0, 2024-06-15 11:25:39.089
85.0, 47807.27449742252, 67841.25481143652, 4352.398735570757, -187500.02235174447, 76320.1655531127, -187500.02235174447, -158035.12579621386, -187500.02235174447, -0.128, 0.972, 0.088, 192.0, 0.0, 0.0, 0.0, 0.0, 0.0, 0.0, 0.0, 0.0, 0.0, 1.7184687390893712E9, 0.0, 2024-06-15 11:25:39.089
86.0, 47544.79796228385, 67562.46150284547, 7712.916459192808, -187500.02235174447, 75509.64659567435, -187500.02235174447, -156295.22130432384, -187500.02235174447, -0.128, 0.972, 0.088, 192.0, 0.0, 0.0, 0.0, 0.0, 0.0, 0.0, 0.0, 0.0, 0.0, 1.7184687390893817E9, 0.0, 2024-06-15 11:25:39.089
87.0, 49080.87689648592, 69090.62791951036, 4844.025354865236, -187500.02235174447, 75142.9885796295, -187500.02235174447, -157809.32847372635, -187500.02235174447, -0.128, 0.972, 0.088, 192.0, 0.0, 0.0, 0.0, 0.0, 0.0, 0.0, 0.0, 0.0, 0.0, 1.718468739089392E9, 0.0, 2024-06-15 11:25:39.089
88.0, 49297.17472757992, 69310.32321576157, 1716.4575119563954, -187500.02235174447, 75999.39566843459, -187500.02235174447, -159388.59097821606, -187500.02235174447, -0.128, 0.972, 0.088, 192.0, 0.0, 0.0, 0.0, 0.0, 0.0, 0.0, 0.0, 0.0, 0.0, 1.7184687390894022E9, 0.0, 2024-06-15 11:25:39.089
89.0, 48053.590721320004, 68069.30966011401, 3575.541505282105, -187500.02235174447, 76354.63194306278, -187500.02235174447, -158438.57478363215, -187500.02235174447, -0.128, 0.972, 0.088, 192.0, 0.0, 0.0, 0.0, 0.0, 0.0, 0.0, 0.0, 0.0, 0.0, 1.7184687390894127E9, 0.0, 2024-06-15 11:25:39.089
90.0, 47423.942080014, 67453.60850734812, 7363.379879400716, -187500.02235174447, 75697.33419386556, -187500.02235174447, -156424.07911110867, -187500.02235174447, -0.12, 0.984, 0.084, 192.0, 252.0, 64.0, 30.0, 192.0, 2.0, 160.0, 0.0, 0.0, 0.0, 1.7184687390894232E9, 0.0, 2024-06-15 11:25:39.089
91.0, 48872.60334165137, 68866.66344006818, 5568.467744406194, -187500.02235174447, 75133.89141963619, -187500.02235174447, -157404.98541652985, -187500.02235174447, -0.12, 0.984, 0.084, 192.0, 0.0, 0.0, 0.0, 0.0, 0.0, 0.0, 0.0, 0.0, 0.0, 1.7184687390894332E9, 0.0, 2024-06-15 11:25:39.089
92.0, 49447.75842997533, 69459.49875825629, 1949.966186280988, -187500.02235174447, 75890.31915549269, -187500.02235174447, -159295.94299744882, -187500.02235174447, -0.12, 0.984, 0.084, 192.0, 0.0, 0.0, 0.0, 0.0, 0.0, 0.0, 0.0, 0.0, 0.0, 1.7184687390894434E9, 0.0, 2024-06-15 11:25:39.089
93.0, 48331.199387454915, 68362.05045724518, 2913.818110682739, -187500.02235174447, 76357.22474541959, -187500.02235174447, -158800.36011938573, -187500.02235174447, -0.12, 0.984, 0.084, 192.0, 0.0, 0.0, 0.0, 0.0, 0.0, 0.0, 0.0, 0.0, 0.0, 1.7184687390894544E9, 0.0, 2024-06-15 11:25:39.089
94.0, 47403.17730941502, 67446.3218386557, 6810.710645998794, -187500.02235174447, 75886.92169033548, -187500.02235174447, -156675.04449785288, -187500.02235174447, -0.12, 0.984, 0.084, 192.0, 0.0, 0.0, 0.0, 0.0, 0.0, 0.0, 0.0, 0.0, 0.0, 1.718468739089465E9, 0.0, 2024-06-15 11:25:39.089
95.0, 48553.53218955186, 68563.03734338729, 6183.967731471984, -187500.02235174447, 75126.73886141049, -187500.02235174447, -157031.13013877036, -187500.02235174447, -0.12, 0.984, 0.084, 192.0, 0.0, 0.0, 0.0, 0.0, 0.0, 0.0, 0.0, 0.0, 0.0, 1.7184687390894752E9, 0.0, 2024-06-15 11:25:39.089
96.0, 49428.93826114396, 69441.5950109476, 2397.023427131585, -187500.02235174447, 75679.51985353469, -187500.02235174447, -159053.15834917527, -187500.02235174447, -0.12, 0.984, 0.084, 192.0, 0.0, 0.0, 0.0, 0.0, 0.0, 0.0, 0.0, 0.0, 0.0, 1.718468739089488E9, 0.0, 2024-06-15 11:25:39.089
97.0, 48581.9189050101, 68613.88756202311, 2470.7394803451875, -187500.02235174447, 76304.4075732717, -187500.02235174447, -159031.63361926482, -187500.02235174447, -0.12, 0.984, 0.084, 192.0, 0.0, 0.0, 0.0, 0.0, 0.0, 0.0, 0.0, 0.0, 0.0, 1.7184687390894988E9, 0.0, 2024-06-15 11:25:39.089
98.0, 47479.86614464118, 67537.44990079998, 6142.684059463032, -187500.02235174447, 76051.07290161526, -187500.02235174447, -156999.7482895551, -187500.02235174447, -0.12, 0.984, 0.084, 192.0, 0.0, 0.0, 0.0, 0.0, 0.0, 0.0, 0.0, 0.0, 0.0, 1.7184687390895095E9, 0.0, 2024-06-15 11:25:39.089
99.0, 48311.485148845335, 68330.91447721893, 6625.347629230932, -187500.02235174447, 75204.81350479288, -187500.02235174447, -156737.15999569418, -187500.02235174447, -0.12, 0.984, 0.084, 192.0, 0.0, 0.0, 0.0, 0.0, 0.0, 0.0, 0.0, 0.0, 0.0, 1.7184687390895205E9, 0.0, 2024-06-15 11:25:39.089
100.0, 49456.56501729072, 69474.56383401917, 2911.3817705371107, -187500.02235174447, 75570.19747140378, -187500.02235174447, -158786.8820174792, -187500.02235174447, -0.116, 0.98, 0.078, 192.0, 252.0, 96.0, 30.0, 160.0, 2.0, 112.0, 0.0, 0.0, 0.0, 1.7184687390895307E9, 0.0, 2024-06-15 11:25:39.089
101.0, 48805.816329218906, 68837.00267517599, 2180.9938169710417, -187500.02235174447, 76239.98984575151, -187500.02235174447, -159192.00738573165, -187500.02235174447, -0.116, 0.98, 0.078, 192.0, 0.0, 0.0, 0.0, 0.0, 0.0, 0.0, 0.0, 0.0, 0.0, 1.7184687390895417E9, 0.0, 2024-06-15 11:25:39.089
102.0, 47614.490701495495, 67669.88398669768, 5426.1318357147975, -187500.02235174447, 76195.84515045228, -187500.02235174447, -157367.65800328949, -187500.02235174447, -0.116, 0.98, 0.078, 192.0, 0.0, 0.0, 0.0, 0.0, 0.0, 0.0, 0.0, 0.0, 0.0, 1.7184687390895524E9, 0.0, 2024-06-15 11:25:39.089
103.0, 48036.379878089414, 68063.49820655564, 6874.368414207508, -187500.02235174447, 75314.98525321309, -187500.02235174447, -156533.0885688172, -187500.02235174447, -0.116, 0.98, 0.078, 192.0, 0.0, 0.0, 0.0, 0.0, 0.0, 0.0, 0.0, 0.0, 0.0, 1.7184687390895996E9, 0.0, 2024-06-15 11:25:39.089
104.0, 49345.11921943656, 69351.98686742627, 3493.130623475388, -187500.02235174447, 75383.31453601296, -187500.02235174447, -158466.13448454553, -187500.02235174447, -0.116, 0.98, 0.078, 192.0, 0.0, 0.0, 0.0, 0.0, 0.0, 0.0, 0.0, 0.0, 0.0, 1.7184687390896213E9, 0.0, 2024-06-15 11:25:39.089
105.0, 48991.760491342604, 69031.03816879251, 2027.1691116296188, -187500.02235174447, 76131.33801595426, -187500.02235174447, -159291.2044276243, -187500.02235174447, -0.116, 0.98, 0.078, 192.0, 0.0, 0.0, 0.0, 0.0, 0.0, 0.0, 0.0, 0.0, 0.0, 1.7184687390896485E9, 0.0, 2024-06-15 11:25:39.089
106.0, 47777.2784563635, 67841.52303236998, 4709.4231497553765, -187500.02235174447, 76257.20068898209, -187500.02235174447, -157758.5900138128, -187500.02235174447, -0.116, 0.98, 0.078, 192.0, 0.0, 0.0, 0.0, 0.0, 0.0, 0.0, 0.0, 0.0, 0.0, 1.7184687390896587E9, 0.0, 2024-06-15 11:25:39.089
107.0, 47849.586349676414, 67895.86012314082, 6907.9183826349245, -187500.02235174447, 75487.29485121905, -187500.02235174447, -156455.01392543482, -187500.02235174447, -0.116, 0.98, 0.078, 192.0, 0.0, 0.0, 0.0, 0.0, 0.0, 0.0, 0.0, 0.0, 0.0, 1.7184687390896688E9, 0.0, 2024-06-15 11:25:39.089
108.0, 49199.40819733241, 69198.2292173182, 4113.1009594322395, -187500.02235174447, 75287.11262787732, -187500.02235174447, -158104.6620732143, -187500.02235174447, -0.116, 0.98, 0.078, 192.0, 0.0, 0.0, 0.0, 0.0, 0.0, 0.0, 0.0, 0.0, 0.0, 1.7184687390896792E9, 0.0, 2024-06-15 11:25:39.089
109.0, 49160.13618232444, 69186.76277241264, 2034.6569460221467, -187500.02235174447, 76040.88050614363, -187500.02235174447, -159301.64269228492, -187500.02235174447, -0.116, 0.98, 0.078, 192.0, 0.0, 0.0, 0.0, 0.0, 0.0, 0.0, 0.0, 0.0, 0.0, 1.7184687390896897E9, 0.0, 2024-06-15 11:25:39.089
110.0, 48002.47228175071, 68080.35142187493, 4024.7445136004108, -187500.02235174447, 76331.20731487362, -187500.02235174447, -158163.26834717614, -187500.02235174447, -0.116, 0.98, 0.078, 192.0, 0.0, 0.0, 0.0, 0.0, 0.0, 0.0, 0.0, 0.0, 0.0, 1.7184687390897002E9, 0.0, 2024-06-15 11:25:39.089
111.0, 47682.28354242844, 67761.16851105315, 6732.367781682942, -187500.02235174447, 75669.72978946326, -187500.02235174447, -156500.96911203495, -187500.02235174447, -0.12, 0.982, 0.078, 192.0, 252.0, 64.0, 30.0, 176.0, 2.0, 112.0, 0.0, 0.0, 0.0, 1.7184687390897107E9, 0.0, 2024-06-15 11:25:39.089
112.0, 49018.761398644616, 69054.21692779266, 4698.604905439009, -187500.02235174447, 75225.93590330314, -187500.02235174447, -157740.75332173746, -187500.02235174447, -0.12, 0.982, 0.078, 192.0, 0.0, 0.0, 0.0, 0.0, 0.0, 0.0, 0.0, 0.0, 0.0, 1.7184687390897212E9, 0.0, 2024-06-15 11:25:39.089
113.0, 49250.45958166833, 69296.26396849919, 2152.8753224462657, -187500.02235174447, 75901.47267597589, -187500.02235174447, -159252.24533703868, -187500.02235174447, -0.12, 0.982, 0.078, 192.0, 0.0, 0.0, 0.0, 0.0, 0.0, 0.0, 0.0, 0.0, 0.0, 1.7184687390897317E9, 0.0, 2024-06-15 11:25:39.089
114.0, 48204.86732779352, 68271.4141334789, 3465.414460350807, -187500.02235174447, 76305.07812560536, -187500.02235174447, -158495.52702850426, -187500.02235174447, -0.12, 0.982, 0.078, 192.0, 0.0, 0.0, 0.0, 0.0, 0.0, 0.0, 0.0, 0.0, 0.0, 1.7184687390897584E9, 0.0, 2024-06-15 11:25:39.089
115.0, 47607.025218847426, 67688.50298982895, 6416.559984273909, -187500.02235174447, 75840.60887582408, -187500.02235174447, -156637.6723811236, -187500.02235174447, -0.12, 0.982, 0.078, 192.0, 0.0, 0.0, 0.0, 0.0, 0.0, 0.0, 0.0, 0.0, 0.0, 1.718468739089772E9, 0.0, 2024-06-15 11:25:39.089
116.0, 48825.731733528584, 68860.69552429862, 5227.0224961069225, -187500.02235174447, 75230.96504580558, -187500.02235174447, -157391.30614892318, -187500.02235174447, -0.12, 0.982, 0.078, 192.0, 0.0, 0.0, 0.0, 0.0, 0.0, 0.0, 0.0, 0.0, 0.0, 1.7184687390898044E9, 0.0, 2024-06-15 11:25:39.089
117.0, 49369.03558600374, 69412.42598443342, 2370.044871574029, -187500.02235174447, 75811.21633186536, -187500.02235174447, -159149.04733288853, -187500.02235174447, -0.12, 0.982, 0.078, 192.0, 0.0, 0.0, 0.0, 0.0, 0.0, 0.0, 0.0, 0.0, 0.0, 1.7184687390898364E9, 0.0, 2024-06-15 11:25:39.089
118.0, 48417.25360360785, 68485.07445872718, 3002.375722214666, -187500.02235174447, 76288.87311087527, -187500.02235174447, -158786.61379654572, -187500.02235174447, -0.12, 0.982, 0.078, 192.0, 0.0, 0.0, 0.0, 0.0, 0.0, 0.0, 0.0, 0.0, 0.0, 1.718468739089866E9, 0.0, 2024-06-15 11:25:39.089
119.0, 47573.63171263119, 67670.93451868708, 5949.140304224527, -187500.02235174447, 75979.92729901402, -187500.02235174447, -156891.96817779163, -187500.02235174447, -0.12, 0.982, 0.078, 192.0, 0.0, 0.0, 0.0, 0.0, 0.0, 0.0, 0.0, 0.0, 0.0, 1.7184687390898764E9, 0.0, 2024-06-15 11:25:39.089
120.0, 48533.527378264356, 68587.13252391011, 5673.498591601681, -187500.02235174447, 75225.15359224721, -187500.02235174447, -157062.95902287474, -187500.02235174447, -0.12, 0.982, 0.078, 192.0, 0.0, 0.0, 0.0, 0.0, 0.0, 0.0, 0.0, 0.0, 0.0, 1.718468739089887E9, 0.0, 2024-06-15 11:25:39.089
121.0, 49396.21530726139, 69442.46672898135, 2729.6173846265538, -187500.02235174447, 75651.58017296555, -187500.02235174447, -158929.8661267598, -187500.02235174447, -0.132, 0.98, 0.076, 192.0, 251.0, 224.0, 30.0, 160.0, 2.0, 96.0, 0.0, 0.0, 0.0, 1.7184687390898972E9, 0.0, 2024-06-15 11:25:39.089
122.0, 48670.5882752643, 68736.35276989374, 2653.62145347851, -187500.02235174447, 76266.9013460757, -187500.02235174447, -159023.02819764952, -187500.02235174447, -0.132, 0.98, 0.076, 192.0, 0.0, 0.0, 0.0, 0.0, 0.0, 0.0, 0.0, 0.0, 0.0, 1.7184687390899076E9, 0.0, 2024-06-15 11:25:39.089
123.0, 47652.82394323635, 67763.51544422096, 5410.753835529546, -187500.02235174447, 76130.24278047595, -187500.02235174447, -157222.14814688542, -187500.02235174447, -0.132, 0.98, 0.076, 192.0, 0.0, 0.0, 0.0, 0.0, 0.0, 0.0, 0.0, 0.0, 0.0, 1.7184687390899184E9, 0.0, 2024-06-15 11:25:39.089
124.0, 48311.194576167414, 68371.8852248055, 5956.806952572698, -187500.02235174447, 75338.36517791334, -187500.02235174447, -156844.00133419054, -187500.02235174447, -0.132, 0.98, 0.076, 192.0, 0.0, 0.0, 0.0, 0.0, 0.0, 0.0, 0.0, 0.0, 0.0, 1.7184687390899289E9, 0.0, 2024-06-15 11:25:39.089
125.0, 49341.78880951271, 69380.82061777361, 3124.460950429553, -187500.02235174447, 75504.70686014973, -187500.02235174447, -158699.86667631468, -187500.02235174447, -0.132, 0.98, 0.076, 192.0, 0.0, 0.0, 0.0, 0.0, 0.0, 0.0, 0.0, 0.0, 0.0, 1.718468739089939E9, 0.0, 2024-06-15 11:25:39.089
126.0, 48849.69280358467, 68909.62349291128, 2418.2575843641266, -187500.02235174447, 76168.10663558324, -187500.02235174447, -159193.1249729544, -187500.02235174447, -0.132, 0.98, 0.076, 192.0, 0.0, 0.0, 0.0, 0.0, 0.0, 0.0, 0.0, 0.0, 0.0, 1.7184687390899494E9, 0.0, 2024-06-15 11:25:39.089
127.0, 47789.7283780251, 67900.48693424308, 4845.120590343546, -187500.02235174447, 76235.67595907164, -187500.02235174447, -157591.44366877602, -187500.02235174447, -0.132, 0.98, 0.076, 192.0, 0.0, 0.0, 0.0, 0.0, 0.0, 0.0, 0.0, 0.0, 0.0, 1.7184687390899596E9, 0.0, 2024-06-15 11:25:39.089
128.0, 48097.847175341514, 68180.75545796817, 6123.170986553549, -187500.02235174447, 75454.75071129212, -187500.02235174447, -156686.15331484715, -187500.02235174447, -0.132, 0.98, 0.076, 192.0, 0.0, 0.0, 0.0, 0.0, 0.0, 0.0, 0.0, 0.0, 0.0, 1.71846873908997E9, 0.0, 2024-06-15 11:25:39.089
129.0, 49266.306968487144, 69312.78190765166, 3611.438406877328, -187500.02235174447, 75370.32817248443, -187500.02235174447, -158382.27073934922, -187500.02235174447, -0.132, 0.98, 0.076, 192.0, 0.0, 0.0, 0.0, 0.0, 0.0, 0.0, 0.0, 0.0, 0.0, 1.7184687390899804E9, 0.0, 2024-06-15 11:25:39.089
130.0, 49013.08405555297, 69080.7037449722, 2360.4112697137916, -187500.02235174447, 76054.06803537227, -187500.02235174447, -159236.55441243105, -187500.02235174447, -0.132, 0.98, 0.076, 192.0, 0.0, 0.0, 0.0, 0.0, 0.0, 0.0, 0.0, 0.0, 0.0, 1.718468739089996E9, 0.0, 2024-06-15 11:25:39.089
131.0, 47910.22663238367, 68008.40115647331, 4354.4103925717345, -187500.02235174447, 76249.82461331185, -187500.02235174447, -157908.39140515227, -187500.02235174447, -0.14, 0.978, 0.07200000000000001, 192.0, 251.0, 160.0, 30.0, 144.0, 2.0, 64.0, 0.0, 0.0, 0.0, 1.7184687390900064E9, 0.0, 2024-06-15 11:25:39.090
132.0, 47910.94188820623, 68002.34383372591, 6166.98040568595, -187500.02235174447, 75605.35676543198, -187500.02235174447, -156600.70259579452, -187500.02235174447, -0.14, 0.978, 0.07200000000000001, 192.0, 0.0, 0.0, 0.0, 0.0, 0.0, 0.0, 0.0, 0.0, 0.0, 1.7184687390900164E9, 0.0, 2024-06-15 11:25:39.090
133.0, 49140.55605418159, 69182.71710666623, 4138.492541133469, -187500.02235174447, 75301.01541292852, -187500.02235174447, -158016.1938686602, -187500.02235174447, -0.14, 0.978, 0.07200000000000001, 192.0, 0.0, 0.0, 0.0, 0.0, 0.0, 0.0, 0.0, 0.0, 0.0, 1.7184687390900269E9, 0.0, 2024-06-15 11:25:39.090
134.0, 49160.762031169186, 69224.67133100884, 2409.495700537646, -187500.02235174447, 75964.3257813842, -187500.02235174447, -159213.64387436438, -187500.02235174447, -0.14, 0.978, 0.07200000000000001, 192.0, 0.0, 0.0, 0.0, 0.0, 0.0, 0.0, 0.0, 0.0, 0.0, 1.718468739090037E9, 0.0, 2024-06-15 11:25:39.090
135.0, 48118.29902151812, 68220.31804565407, 3888.2200584673956, -187500.02235174447, 76292.27057603248, -187500.02235174447, -158238.32550505706, -187500.02235174447, -0.14, 0.978, 0.07200000000000001, 192.0, 0.0, 0.0, 0.0, 0.0, 0.0, 0.0, 0.0, 0.0, 0.0, 1.7184687390900471E9, 0.0, 2024-06-15 11:25:39.090
136.0, 47776.16086914073, 67878.73868688807, 6047.5773868057, -187500.02235174447, 75764.16590978693, -187500.02235174447, -156635.86188982273, -187500.02235174447, -0.14, 0.978, 0.07200000000000001, 192.0, 0.0, 0.0, 0.0, 0.0, 0.0, 0.0, 0.0, 0.0, 0.0, 1.7184687390900576E9, 0.0, 2024-06-15 11:25:39.090
137.0, 48971.80038354402, 69014.85550580687, 4653.141457216913, -187500.02235174447, 75264.98440086657, -187500.02235174447, -157637.44355886502, -187500.02235174447, -0.14, 0.978, 0.07200000000000001, 192.0, 0.0, 0.0, 0.0, 0.0, 0.0, 0.0, 0.0, 0.0, 0.0, 1.7184687390900676E9, 0.0, 2024-06-15 11:25:39.090
138.0, 49308.819986441136, 69366.2249286443, 2537.101809632994, -187500.02235174447, 75879.2103384984, -187500.02235174447, -159148.60029799942, -187500.02235174447, -0.14, 0.978, 0.07200000000000001, 192.0, 0.0, 0.0, 0.0, 0.0, 0.0, 0.0, 0.0, 0.0, 0.0, 1.718468739090078E9, 0.0, 2024-06-15 11:25:39.090
139.0, 48345.77272483978, 68433.9560191579, 3473.5281435880834, -187500.02235174447, 76317.55039901142, -187500.02235174447, -158546.71252330692, -187500.02235174447, -0.14, 0.978, 0.07200000000000001, 192.0, 0.0, 0.0, 0.0, 0.0, 0.0, 0.0, 0.0, 0.0, 0.0, 1.7184687390900905E9, 0.0, 2024-06-15 11:25:39.090
140.0, 47752.37861304029, 67861.97487854659, 5761.363299055493, -187500.02235174447, 75949.41716783252, -187500.02235174447, -156810.2054965741, -187500.02235174447, -0.14, 0.978, 0.07200000000000001, 192.0, 0.0, 0.0, 0.0, 0.0, 0.0, 0.0, 0.0, 0.0, 0.0, 1.7184687390901003E9, 0.0, 2024-06-15 11:25:39.090
141.0, 48775.93204688216, 68823.45751803607, 5047.448581152986, -187500.02235174447, 75306.75981125353, -187500.02235174447, -157333.6833517174, -187500.02235174447, -0.152, 0.99, 0.076, 192.0, 251.0, 64.0, 30.0, 240.0, 2.0, 96.0, 0.0, 0.0, 0.0, 1.7184687390901108E9, 0.0, 2024-06-15 11:25:39.090
142.0, 49376.970455285365, 69427.15578402947, 2760.932178608439, -187500.02235174447, 75755.53813642719, -187500.02235174447, -159017.5296685135, -187500.02235174447, -0.152, 0.99, 0.076, 192.0, 0.0, 0.0, 0.0, 0.0, 0.0, 0.0, 0.0, 0.0, 0.0, 1.7184687390901208E9, 0.0, 2024-06-15 11:25:39.090
143.0, 48555.14151515264, 68640.21791699147, 3140.129523292723, -187500.02235174447, 76288.20255854161, -187500.02235174447, -158814.9334567706, -187500.02235174447, -0.152, 0.99, 0.076, 192.0, 0.0, 0.0, 0.0, 0.0, 0.0, 0.0, 0.0, 0.0, 0.0, 1.7184687390901313E9, 0.0, 2024-06-15 11:25:39.090
144.0, 47760.98403465558, 67880.92915784469, 5388.9161811967115, -187500.02235174447, 76084.08642817574, -187500.02235174447, -157076.4818282702, -187500.02235174447, -0.152, 0.99, 0.076, 192.0, 0.0, 0.0, 0.0, 0.0, 0.0, 0.0, 0.0, 0.0, 0.0, 1.7184687390901415E9, 0.0, 2024-06-15 11:25:39.090
145.0, 48549.01713717188, 68611.2947596663, 5353.309852279407, -187500.02235174447, 75358.14647175628, -187500.02235174447, -157073.5313980021, -187500.02235174447, -0.152, 0.99, 0.076, 192.0, 0.0, 0.0, 0.0, 0.0, 0.0, 0.0, 0.0, 0.0, 0.0, 1.7184687390901515E9, 0.0, 2024-06-15 11:25:39.090
146.0, 49361.167771955465, 69415.48817342379, 3067.2851881128777, -187500.02235174447, 75607.43547766632, -187500.02235174447, -158821.41546266264, -187500.02235174447, -0.152, 0.99, 0.076, 192.0, 0.0, 0.0, 0.0, 0.0, 0.0, 0.0, 0.0, 0.0, 0.0, 1.7184687390901618E9, 0.0, 2024-06-15 11:25:39.090
147.0, 48743.85729358879, 68834.81220421937, 2910.4653490144433, -187500.02235174447, 76213.34656636078, -187500.02235174447, -159014.9815696456, -187500.02235174447, -0.152, 0.99, 0.076, 192.0, 0.0, 0.0, 0.0, 0.0, 0.0, 0.0, 0.0, 0.0, 0.0, 1.718468739090172E9, 0.0, 2024-06-15 11:25:39.090
148.0, 47816.93045102721, 67952.00770521256, 4988.75290021335, -187500.02235174447, 76186.59152824778, -187500.02235174447, -157385.15941919797, -187500.02235174447, -0.152, 0.99, 0.076, 192.0, 0.0, 0.0, 0.0, 0.0, 0.0, 0.0, 0.0, 0.0, 0.0, 1.7184687390901823E9, 0.0, 2024-06-15 11:25:39.090
149.0, 48320.17997743845, 68405.90457986649, 5556.800133800523, -187500.02235174447, 75448.93925773374, -187500.02235174447, -156874.46676188312, -187500.02235174447, -0.152, 0.99, 0.076, 192.0, 0.0, 0.0, 0.0, 0.0, 0.0, 0.0, 0.0, 0.0, 0.0, 1.7184687390901928E9, 0.0, 2024-06-15 11:25:39.090
150.0, 49322.096922647586, 69378.27251890571, 3430.769256445081, -187500.02235174447, 75490.0217640426, -187500.02235174447, -158568.84075031767, -187500.02235174447, -0.152, 0.99, 0.076, 192.0, 0.0, 0.0, 0.0, 0.0, 0.0, 0.0, 0.0, 0.0, 0.0, 1.718468739090203E9, 0.0, 2024-06-15 11:25:39.090
151.0, 48919.899632918794, 69008.64172084829, 2778.0089113722934, -187500.02235174447, 76146.96188532852, -187500.02235174447, -159149.4720160332, -187500.02235174447, -0.152, 0.99, 0.076, 192.0, 0.0, 0.0, 0.0, 0.0, 0.0, 0.0, 0.0, 0.0, 0.0, 1.718468739090214E9, 0.0, 2024-06-15 11:25:39.090
152.0, 47904.616344525384, 68049.12603487087, 4586.399148273367, -187500.02235174447, 76245.3989679097, -187500.02235174447, -157709.8855626447, -187500.02235174447, -0.176, 0.98, 0.07, 192.0, 250.0, 128.0, 30.0, 160.0, 2.0, 48.0, 0.0, 0.0, 0.0, 1.7184687390902245E9, 0.0, 2024-06-15 11:25:39.090
153.0, 48139.60023398403, 68246.84956632252, 5637.758152217645, -187500.02235174447, 75585.08373321101, -187500.02235174447, -156762.12689425074, -187500.02235174447, -0.176, 0.98, 0.07, 192.0, 0.0, 0.0, 0.0, 0.0, 0.0, 0.0, 0.0, 0.0, 0.0, 1.7184687390902348E9, 0.0, 2024-06-15 11:25:39.090
154.0, 49250.54898864615, 69308.64683492742, 3797.4496242343935, -187500.02235174447, 75409.71194621468, -187500.02235174447, -158298.2058284528, -187500.02235174447, -0.176, 0.98, 0.07, 192.0, 0.0, 0.0, 0.0, 0.0, 0.0, 0.0, 0.0, 0.0, 0.0, 1.718468739090245E9, 0.0, 2024-06-15 11:25:39.090
0.0, 0.0, 0.0, 0.0, 0.0, 0.0, 0.0, 0.0, 0.0, -0.202, 0.968, 0.084, 192.0, 249.0, 176.0, 30.0, 64.0, 2.0, 160.0, 0.0, 0.0, 0.0, 1.718468739200464E9, 0.0, 2024-06-15 11:25:39.200
1.0, 48490.947305076996, 70168.9654790122, 7980.265674622736, -187500.02235174447, 75450.28036240106, -187500.02235174447, -163498.69680389127, -187500.02235174447, -0.202, 0.968, 0.084, 192.0, 0.0, 0.0, 0.0, 0.0, 0.0, 0.0, 0.0, 0.0, 0.0, 1.7184687396853447E9, 0.0, 2024-06-15 11:25:39.685
2.0, 48491.46139519947, 69948.80079612741, 7627.063408739974, -187500.02235174447, 75207.07103098286, -187500.02235174447, -163588.93079625737, -187500.02235174447, -0.202, 0.968, 0.084, 192.0, 0.0, 0.0, 0.0, 0.0, 0.0, 0.0, 0.0, 0.0, 0.0, 1.718468739685488E9, 0.0, 2024-06-15 11:25:39.685
3.0, 48149.09972537753, 69540.09914876214, 12846.128683820807, -187500.02235174447, 74612.00053834922, -187500.02235174447, -163822.79709849323, -187500.02235174447, -0.202, 0.968, 0.084, 192.0, 0.0, 0.0, 0.0, 0.0, 0.0, 0.0, 0.0, 0.0, 0.0, 1.7184687396855009E9, 0.0, 2024-06-15 11:25:39.685
4.0, 48025.38281981741, 69576.53249222429, 13823.414006640198, -187500.02235174447, 74838.33430270366, -187500.02235174447, -163731.46787064886, -187500.02235174447, -0.202, 0.968, 0.084, 192.0, 0.0, 0.0, 0.0, 0.0, 0.0, 0.0, 0.0, 0.0, 0.0, 1.7184687396855116E9, 0.0, 2024-06-15 11:25:39.685
5.0, 48379.367396756104, 70069.00847780806, 9003.863811953523, -187500.02235174447, 75351.4856519086, -187500.02235174447, -163458.39660863837, -187500.02235174447, -0.202, 0.968, 0.084, 192.0, 0.0, 0.0, 0.0, 0.0, 0.0, 0.0, 0.0, 0.0, 0.0, 1.7184687396855223E9, 0.0, 2024-06-15 11:25:39.685
6.0, 48520.27279380236, 70029.71411105563, 7055.886930929057, -187500.02235174447, 75298.13203789378, -187500.02235174447, -163483.92230080633, -187500.02235174447, -0.202, 0.968, 0.084, 192.0, 0.0, 0.0, 0.0, 0.0, 0.0, 0.0, 0.0, 0.0, 0.0, 1.7184687396855328E9, 0.0, 2024-06-15 11:25:39.685
7.0, 48188.863478763524, 69560.39453272754, 12136.25963166471, -187500.02235174447, 74663.18603315187, -187500.02235174447, -163744.8565655776, -187500.02235174447, -0.202, 0.968, 0.084, 192.0, 0.0, 0.0, 0.0, 0.0, 0.0, 0.0, 0.0, 0.0, 0.0, 1.71846873968556E9, 0.0, 2024-06-15 11:25:39.685
8.0, 48025.204005861764, 69523.17887820947, 14138.484196482206, -187500.02235174447, 74780.5997467756, -187500.02235174447, -163753.0596557927, -187500.02235174447, -0.21, 0.968, 0.076, 192.0, 249.0, 112.0, 30.0, 64.0, 2.0, 96.0, 0.0, 0.0, 0.0, 1.7184687396855695E9, 0.0, 2024-06-15 11:25:39.685
9.0, 48310.859300000586, 69975.73464819607, 10043.532853547675, -187500.02235174447, 75309.03968918796, -187500.02235174447, -163498.22741725773, -187500.02235174447, -0.21, 0.968, 0.076, 192.0, 0.0, 0.0, 0.0, 0.0, 0.0, 0.0, 0.0, 0.0, 0.0, 1.7184687396855788E9, 0.0, 2024-06-15 11:25:39.685
10.0, 48571.838268260755, 70109.84511492791, 6660.439868025765, -187500.02235174447, 75422.8547719544, -187500.02235174447, -163483.36350719494, -187500.02235174447, -0.21, 0.968, 0.076, 192.0, 0.0, 0.0, 0.0, 0.0, 0.0, 0.0, 0.0, 0.0, 0.0, 1.718468739685588E9, 0.0, 2024-06-15 11:25:39.685
11.0, 48226.92849957091, 69584.33325103918, 11221.536841575724, -187500.02235174447, 74760.50552851029, -187500.02235174447, -163726.46107989087, -187500.02235174447, -0.21, 0.968, 0.076, 192.0, 0.0, 0.0, 0.0, 0.0, 0.0, 0.0, 0.0, 0.0, 0.0, 1.7184687396855977E9, 0.0, 2024-06-15 11:25:39.685
12.0, 48038.57034904604, 69499.32956687565, 14195.011758209677, -187500.02235174447, 74732.27527526322, -187500.02235174447, -163816.3597960901, -187500.02235174447, -0.21, 0.968, 0.076, 192.0, 0.0, 0.0, 0.0, 0.0, 0.0, 0.0, 0.0, 0.0, 0.0, 1.7184687396856067E9, 0.0, 2024-06-15 11:25:39.685
13.0, 48211.55049938566, 69852.53183275841, 11084.85592423152, -187500.02235174447, 75219.05156601091, -187500.02235174447, -163553.88326095144, -187500.02235174447, -0.21, 0.968, 0.076, 192.0, 0.0, 0.0, 0.0, 0.0, 0.0, 0.0, 0.0, 0.0, 0.0, 1.7184687396856172E9, 0.0, 2024-06-15 11:25:39.685
14.0, 48578.3649776417, 70165.63506908836, 6608.427358678265, -187500.02235174447, 75451.59911532392, -187500.02235174447, -163477.57440538102, -187500.02235174447, -0.21, 0.968, 0.076, 192.0, 0.0, 0.0, 0.0, 0.0, 0.0, 0.0, 0.0, 0.0, 0.0, 1.718468739685626E9, 0.0, 2024-06-15 11:25:39.685
15.0, 48316.82721577016, 69681.8539120977, 10220.73748358935, -187500.02235174447, 74863.94940184944, -187500.02235174447, -163708.892608749, -187500.02235174447, -0.21, 0.968, 0.076, 192.0, 0.0, 0.0, 0.0, 0.0, 0.0, 0.0, 0.0, 0.0, 0.0, 1.7184687396856349E9, 0.0, 2024-06-15 11:25:39.685
16.0, 48052.98722421971, 69491.86408422758, 14083.029518488589, -187500.02235174447, 74642.60007650853, -187500.02235174447, -163846.04291272676, -187500.02235174447, -0.21, 0.968, 0.076, 192.0, 0.0, 0.0, 0.0, 0.0, 0.0, 0.0, 0.0, 0.0, 0.0, 1.718468739685644E9, 0.0, 2024-06-15 11:25:39.685
17.0, 48150.82080970059, 69763.25896540392, 12052.306479490577, -187500.02235174447, 75100.18498899759, -187500.02235174447, -163606.02988076568, -187500.02235174447, -0.21, 0.968, 0.076, 192.0, 0.0, 0.0, 0.0, 0.0, 0.0, 0.0, 0.0, 0.0, 0.0, 1.7184687396856534E9, 0.0, 2024-06-15 11:25:39.685
18.0, 48535.22611084296, 70159.53304285205, 6912.344028037075, -187500.02235174447, 75447.0617111995, -187500.02235174447, -163451.40051262386, -187500.02235174447, -0.21, 0.9580000000000001, 0.08, 192.0, 249.0, 112.0, 29.0, 240.0, 2.0, 128.0, 0.0, 0.0, 0.0, 1.7184687396856625E9, 0.0, 2024-06-15 11:25:39.685
19.0, 48339.53658813675, 69714.3533485357, 9266.317995347737, -187500.02235174447, 74947.16494645656, -187500.02235174447, -163613.2271424803, -187500.02235174447, -0.21, 0.9580000000000001, 0.08, 192.0, 0.0, 0.0, 0.0, 0.0, 0.0, 0.0, 0.0, 0.0, 0.0, 1.7184687396856716E9, 0.0, 2024-06-15 11:25:39.685
20.0, 48086.246619969206, 69488.22074988137, 13812.953390235114, -187500.02235174447, 74601.24934926622, -187500.02235174447, -163833.1236044316, -187500.02235174447, -0.21, 0.9580000000000001, 0.08, 192.0, 0.0, 0.0, 0.0, 0.0, 0.0, 0.0, 0.0, 0.0, 0.0, 1.7184687396856809E9, 0.0, 2024-06-15 11:25:39.685
21.0, 48084.39142517942, 69646.44874888047, 12877.354070824871, -187500.02235174447, 75000.63031919365, -187500.02235174447, -163655.13666333398, -187500.02235174447, -0.21, 0.9580000000000001, 0.08, 192.0, 0.0, 0.0, 0.0, 0.0, 0.0, 0.0, 0.0, 0.0, 0.0, 1.7184687396856897E9, 0.0, 2024-06-15 11:25:39.685
22.0, 48515.51187223338, 70157.05199921751, 7471.137639419751, -187500.02235174447, 75447.37463562186, -187500.02235174447, -163481.26244321614, -187500.02235174447, -0.21, 0.9580000000000001, 0.08, 192.0, 0.0, 0.0, 0.0, 0.0, 0.0, 0.0, 0.0, 0.0, 0.0, 1.7184687396856985E9, 0.0, 2024-06-15 11:25:39.685
23.0, 48407.28472558078, 69812.2316375055, 8297.63809414364, -187500.02235174447, 75087.17627372459, -187500.02235174447, -163591.94828175884, -187500.02235174447, -0.21, 0.9580000000000001, 0.08, 192.0, 0.0, 0.0, 0.0, 0.0, 0.0, 0.0, 0.0, 0.0, 0.0, 1.718468739685708E9, 0.0, 2024-06-15 11:25:39.685
24.0, 48113.493396460224, 69490.21005513788, 13333.35200945759, -187500.02235174447, 74599.50591319871, -187500.02235174447, -163832.2295346534, -187500.02235174447, -0.21, 0.9580000000000001, 0.08, 192.0, 0.0, 0.0, 0.0, 0.0, 0.0, 0.0, 0.0, 0.0, 0.0, 1.7184687396857173E9, 0.0, 2024-06-15 11:25:39.685
25.0, 48063.00080573569, 69597.69959422345, 13494.217514302436, -187500.02235174447, 74939.45359461947, -187500.02235174447, -163729.56797237016, -187500.02235174447, -0.21, 0.9580000000000001, 0.08, 192.0, 0.0, 0.0, 0.0, 0.0, 0.0, 0.0, 0.0, 0.0, 0.0, 1.718468739685727E9, 0.0, 2024-06-15 11:25:39.685
26.0, 48448.41193537855, 70105.86650441487, 8304.500079691421, -187500.02235174447, 75417.78092596304, -187500.02235174447, -163495.72402187873, -187500.02235174447, -0.21, 0.9580000000000001, 0.08, 192.0, 0.0, 0.0, 0.0, 0.0, 0.0, 0.0, 0.0, 0.0, 0.0, 1.7184687396857357E9, 0.0, 2024-06-15 11:25:39.685
27.0, 48492.53427893332, 69938.29547623343, 7488.080261716875, -187500.02235174447, 75229.44512718263, -187500.02235174447, -163575.11741818397, -187500.02235174447, -0.21, 0.9580000000000001, 0.08, 192.0, 0.0, 0.0, 0.0, 0.0, 0.0, 0.0, 0.0, 0.0, 0.0, 1.7184687396857653E9, 0.0, 2024-06-15 11:25:39.685
28.0, 48165.505905807724, 69521.36838690858, 12671.65096660268, -187500.02235174447, 74635.9169049164, -187500.02235174447, -163835.8281655107, -187500.02235174447, -0.216, 0.9520000000000001, 0.084, 192.0, 249.0, 64.0, 29.0, 192.0, 2.0, 160.0, 0.0, 0.0, 0.0, 1.7184687396857748E9, 0.0, 2024-06-15 11:25:39.685
29.0, 48029.204968119266, 69530.15262247952, 13932.222298648632, -187500.02235174447, 74847.81144235271, -187500.02235174447, -163784.66502245248, -187500.02235174447, -0.216, 0.9520000000000001, 0.084, 192.0, 0.0, 0.0, 0.0, 0.0, 0.0, 0.0, 0.0, 0.0, 0.0, 1.7184687396857843E9, 0.0, 2024-06-15 11:25:39.685
30.0, 48372.438355974955, 70024.19323017517, 9299.89031551961, -187500.02235174447, 75371.60222191838, -187500.02235174447, -163530.21276357328, -187500.02235174447, -0.216, 0.9520000000000001, 0.084, 192.0, 0.0, 0.0, 0.0, 0.0, 0.0, 0.0, 0.0, 0.0, 0.0, 1.7184687396857936E9, 0.0, 2024-06-15 11:25:39.685
31.0, 48539.22707310046, 70020.88517199579, 6917.663743217438, -187500.02235174447, 75360.89573632428, -187500.02235174447, -163563.38275234494, -187500.02235174447, -0.216, 0.9520000000000001, 0.084, 192.0, 0.0, 0.0, 0.0, 0.0, 0.0, 0.0, 0.0, 0.0, 0.0, 1.7184687396858027E9, 0.0, 2024-06-15 11:25:39.685
32.0, 48181.4203478599, 69517.59094209563, 11879.840419273427, -187500.02235174447, 74688.48820787529, -187500.02235174447, -163805.8097727072, -187500.02235174447, -0.216, 0.9520000000000001, 0.084, 192.0, 0.0, 0.0, 0.0, 0.0, 0.0, 0.0, 0.0, 0.0, 0.0, 1.718468739685812E9, 0.0, 2024-06-15 11:25:39.685
33.0, 48021.9853546602, 69487.7513632478, 14156.61146123546, -187500.02235174447, 74760.147900599, -187500.02235174447, -163836.36460737762, -187500.02235174447, -0.216, 0.9520000000000001, 0.084, 192.0, 0.0, 0.0, 0.0, 0.0, 0.0, 0.0, 0.0, 0.0, 0.0, 1.7184687396858215E9, 0.0, 2024-06-15 11:25:39.685
34.0, 48267.31810180165, 69909.26056018598, 10370.494171439906, -187500.02235174447, 75269.72297069109, -187500.02235174447, -163557.57129878656, -187500.02235174447, -0.216, 0.9520000000000001, 0.084, 192.0, 0.0, 0.0, 0.0, 0.0, 0.0, 0.0, 0.0, 0.0, 0.0, 1.7184687396858308E9, 0.0, 2024-06-15 11:25:39.685
35.0, 48562.13761116715, 70105.55357999248, 6680.757603735638, -187500.02235174447, 75407.02973688004, -187500.02235174447, -163510.58793194153, -187500.02235174447, -0.216, 0.9520000000000001, 0.084, 192.0, 0.0, 0.0, 0.0, 0.0, 0.0, 0.0, 0.0, 0.0, 0.0, 1.7184687396858556E9, 0.0, 2024-06-15 11:25:39.685
36.0, 48245.25693002426, 69591.21758833142, 10980.31681541405, -187500.02235174447, 74755.87871740804, -187500.02235174447, -163755.02660930474, -187500.02235174447, -0.216, 0.9520000000000001, 0.084, 192.0, 0.0, 0.0, 0.0, 0.0, 0.0, 0.0, 0.0, 0.0, 0.0, 1.7184687396858647E9, 0.0, 2024-06-15 11:25:39.685
37.0, 48041.565482803046, 69476.28491834222, 14187.434516839328, -187500.02235174447, 74688.66702183093, -187500.02235174447, -163876.39658169707, -187500.02235174447, -0.216, 0.9520000000000001, 0.084, 192.0, 0.0, 0.0, 0.0, 0.0, 0.0, 0.0, 0.0, 0.0, 0.0, 1.718468739685874E9, 0.0, 2024-06-15 11:25:39.685
38.0, 48197.312438167624, 69812.63396890569, 11400.68607338501, -187500.02235174447, 75182.90879522667, -187500.02235174447, -163615.4623169258, -187500.02235174447, -0.216, 0.9520000000000001, 0.084, 192.0, 0.0, 0.0, 0.0, 0.0, 0.0, 0.0, 0.0, 0.0, 0.0, 1.7184687396858833E9, 0.0, 2024-06-15 11:25:39.685
39.0, 48551.87816046216, 70134.54379255102, 6732.747761338683, -187500.02235174447, 75443.93246697575, -187500.02235174447, -163505.20116152777, -187500.02235174447, -0.222, 0.9500000000000001, 0.08600000000000001, 192.0, 249.0, 16.0, 29.0, 176.0, 2.0, 176.0, 0.0, 0.0, 0.0, 1.7184687396858933E9, 0.0, 2024-06-15 11:25:39.685
40.0, 48296.48712831583, 69648.77333030383, 10026.03143763917, -187500.02235174447, 74867.54803270675, -187500.02235174447, -163691.48059981831, -187500.02235174447, -0.222, 0.9500000000000001, 0.08600000000000001, 192.0, 0.0, 0.0, 0.0, 0.0, 0.0, 0.0, 0.0, 0.0, 0.0, 1.7184687396859026E9, 0.0, 2024-06-15 11:25:39.685
41.0, 48059.93861674531, 69467.21011009338, 14069.953747982234, -187500.02235174447, 74633.63702698196, -187500.02235174447, -163860.21391871144, -187500.02235174447, -0.222, 0.9500000000000001, 0.08600000000000001, 192.0, 0.0, 0.0, 0.0, 0.0, 0.0, 0.0, 0.0, 0.0, 0.0, 1.718468739685912E9, 0.0, 2024-06-15 11:25:39.685
42.0, 48125.71980067728, 69711.46997350096, 12355.597300004638, -187500.02235174447, 75090.14905573714, -187500.02235174447, -163645.32424751812, -187500.02235174447, -0.222, 0.9500000000000001, 0.08600000000000001, 192.0, 0.0, 0.0, 0.0, 0.0, 0.0, 0.0, 0.0, 0.0, 0.0, 1.7184687396859217E9, 0.0, 2024-06-15 11:25:39.685
43.0, 48537.26011958839, 70160.33770565245, 7133.313373722241, -187500.02235174447, 75458.2152316827, -187500.02235174447, -163482.42473392782, -187500.02235174447, -0.222, 0.9500000000000001, 0.08600000000000001, 192.0, 0.0, 0.0, 0.0, 0.0, 0.0, 0.0, 0.0, 0.0, 0.0, 1.7184687396859312E9, 0.0, 2024-06-15 11:25:39.685
44.0, 48413.409103561535, 69795.51253265292, 9033.256355912252, -187500.02235174447, 75032.43685155355, -187500.02235174447, -163662.64684947097, -187500.02235174447, -0.222, 0.9500000000000001, 0.08600000000000001, 192.0, 0.0, 0.0, 0.0, 0.0, 0.0, 0.0, 0.0, 0.0, 0.0, 1.7184687396859417E9, 0.0, 2024-06-15 11:25:39.685
45.0, 48124.11047507649, 69509.03022396925, 13720.886554823705, -187500.02235174447, 74638.42030029539, -187500.02235174447, -163887.05836380224, -187500.02235174447, -0.222, 0.9500000000000001, 0.08600000000000001, 192.0, 0.0, 0.0, 0.0, 0.0, 0.0, 0.0, 0.0, 0.0, 0.0, 1.718468739685953E9, 0.0, 2024-06-15 11:25:39.685
46.0, 48077.9988262652, 69630.51195508384, 13136.857823950986, -187500.02235174447, 75006.53117972985, -187500.02235174447, -163697.38146035452, -187500.02235174447, -0.222, 0.9500000000000001, 0.08600000000000001, 192.0, 0.0, 0.0, 0.0, 0.0, 0.0, 0.0, 0.0, 0.0, 0.0, 1.7184687396859634E9, 0.0, 2024-06-15 11:25:39.685
47.0, 48519.93751763553, 70168.98783075665, 7795.9084863553635, -187500.02235174447, 75471.5145196336, -187500.02235174447, -163495.25463524516, -187500.02235174447, -0.222, 0.9500000000000001, 0.08600000000000001, 192.0, 0.0, 0.0, 0.0, 0.0, 0.0, 0.0, 0.0, 0.0, 0.0, 1.718468739685975E9, 0.0, 2024-06-15 11:25:39.685
48.0, 48444.36626963213, 69853.40355079217, 8160.3760314436, -187500.02235174447, 75149.3364750548, -187500.02235174447, -163601.78304931917, -187500.02235174447, -0.222, 0.9500000000000001, 0.08600000000000001, 192.0, 0.0, 0.0, 0.0, 0.0, 0.0, 0.0, 0.0, 0.0, 0.0, 1.7184687396859856E9, 0.0, 2024-06-15 11:25:39.685
49.0, 48145.27757707567, 69509.656072814, 13250.29292706167, -187500.02235174447, 74621.365919276, -187500.02235174447, -163841.05847371323, -187500.02235174447, -0.222, 0.9560000000000001, 0.08, 192.0, 249.0, 16.0, 29.0, 224.0, 2.0, 128.0, 0.0, 0.0, 0.0, 1.7184687396859975E9, 0.0, 2024-06-15 11:25:39.685
50.0, 48068.901666271886, 69589.94353889747, 13729.134348527712, -187500.02235174447, 74930.82582125971, -187500.02235174447, -163744.9906760443, -187500.02235174447, -0.222, 0.9560000000000001, 0.08, 192.0, 0.0, 0.0, 0.0, 0.0, 0.0, 0.0, 0.0, 0.0, 0.0, 1.7184687396860087E9, 0.0, 2024-06-15 11:25:39.686
51.0, 48460.12424947313, 70113.86842892987, 8683.786831353525, -187500.02235174447, 75434.58943779343, -187500.02235174447, -163508.19629528478, -187500.02235174447, -0.222, 0.9560000000000001, 0.08, 192.0, 0.0, 0.0, 0.0, 0.0, 0.0, 0.0, 0.0, 0.0, 0.0, 1.7184687396860185E9, 0.0, 2024-06-15 11:25:39.686
52.0, 48554.13568665215, 70003.89784620974, 7416.711141671079, -187500.02235174447, 75311.09604967786, -187500.02235174447, -163577.57611007406, -187500.02235174447, -0.222, 0.9560000000000001, 0.08, 192.0, 0.0, 0.0, 0.0, 0.0, 0.0, 0.0, 0.0, 0.0, 0.0, 1.718468739686033E9, 0.0, 2024-06-15 11:25:39.686
53.0, 48215.149130242964, 69557.80173037073, 12542.971973773478, -187500.02235174447, 74685.2248531848, -187500.02235174447, -163844.925325504, -187500.02235174447, -0.222, 0.9560000000000001, 0.08, 192.0, 0.0, 0.0, 0.0, 0.0, 0.0, 0.0, 0.0, 0.0, 0.0, 1.7184687396860442E9, 0.0, 2024-06-15 11:25:39.686
54.0, 48060.787983034614, 69543.87659357507, 14095.255922705643, -187500.02235174447, 74847.02913129677, -187500.02235174447, -163806.79324946326, -187500.02235174447, -0.222, 0.9560000000000001, 0.08, 192.0, 0.0, 0.0, 0.0, 0.0, 0.0, 0.0, 0.0, 0.0, 0.0, 1.7184687396860554E9, 0.0, 2024-06-15 11:25:39.686
55.0, 48373.66770192, 70030.27290466701, 9698.846602302385, -187500.02235174447, 75371.17753877373, -187500.02235174447, -163543.847327691, -187500.02235174447, -0.222, 0.9560000000000001, 0.08, 192.0, 0.0, 0.0, 0.0, 0.0, 0.0, 0.0, 0.0, 0.0, 0.0, 1.718468739686066E9, 0.0, 2024-06-15 11:25:39.686
56.0, 48528.23001482845, 70033.84918377986, 6982.148525970999, -187500.02235174447, 75364.71788462614, -187500.02235174447, -163505.93876909482, -187500.02235174447, -0.222, 0.9560000000000001, 0.08, 192.0, 0.0, 0.0, 0.0, 0.0, 0.0, 0.0, 0.0, 0.0, 0.0, 1.718468739686077E9, 0.0, 2024-06-15 11:25:39.686
57.0, 48227.375534460014, 69569.93872760996, 11786.074851283414, -187500.02235174447, 74712.94101630939, -187500.02235174447, -163750.5562604137, -187500.02235174447, -0.222, 0.9560000000000001, 0.08, 192.0, 0.0, 0.0, 0.0, 0.0, 0.0, 0.0, 0.0, 0.0, 0.0, 1.718468739686088E9, 0.0, 2024-06-15 11:25:39.686
58.0, 48065.683015070324, 69521.48014563086, 14314.571239301114, -187500.02235174447, 74775.81647346217, -187500.02235174447, -163811.5541710322, -187500.02235174447, -0.222, 0.9560000000000001, 0.08, 192.0, 0.0, 0.0, 0.0, 0.0, 0.0, 0.0, 0.0, 0.0, 0.0, 1.7184687396860995E9, 0.0, 2024-06-15 11:25:39.686
59.0, 48285.355959577086, 69921.66577835867, 10812.455214554693, -187500.02235174447, 75285.1680261097, -187500.02235174447, -163531.50916475168, -187500.02235174447, -0.22, 0.962, 0.076, 192.0, 249.0, 32.0, 30.0, 16.0, 2.0, 96.0, 0.0, 0.0, 0.0, 1.7184687396861117E9, 0.0, 2024-06-15 11:25:39.686
60.0, 48621.63795490718, 70175.73805758216, 6781.943950884814, -187500.02235174447, 75489.77589485358, -187500.02235174447, -163505.62584467244, -187500.02235174447, -0.22, 0.962, 0.076, 192.0, 0.0, 0.0, 0.0, 0.0, 0.0, 0.0, 0.0, 0.0, 0.0, 1.7184687396861227E9, 0.0, 2024-06-15 11:25:39.686
61.0, 48311.01576221178, 69654.85300479567, 10812.723435488157, -187500.02235174447, 74848.37023596409, -187500.02235174447, -163754.26664999328, -187500.02235174447, -0.22, 0.962, 0.076, 192.0, 0.0, 0.0, 0.0, 0.0, 0.0, 0.0, 0.0, 0.0, 0.0, 1.7184687396861339E9, 0.0, 2024-06-15 11:25:39.686
62.0, 48065.86182902597, 69491.08177317164, 14274.069878348098, -187500.02235174447, 74697.54066437967, -187500.02235174447, -163865.8242065697, -187500.02235174447, -0.22, 0.962, 0.076, 192.0, 0.0, 0.0, 0.0, 0.0, 0.0, 0.0, 0.0, 0.0, 0.0, 1.7184687396861453E9, 0.0, 2024-06-15 11:25:39.686
63.0, 48180.59333331506, 69789.54461688336, 11811.399377751277, -187500.02235174447, 75168.80484447538, -187500.02235174447, -163598.3185289286, -187500.02235174447, -0.22, 0.962, 0.076, 192.0, 0.0, 0.0, 0.0, 0.0, 0.0, 0.0, 0.0, 0.0, 0.0, 1.7184687396861572E9, 0.0, 2024-06-15 11:25:39.686
64.0, 48572.48646884996, 70174.88869129284, 6950.543159311195, -187500.02235174447, 75470.01695275509, -187500.02235174447, -163478.91551004833, -187500.02235174447, -0.22, 0.962, 0.076, 192.0, 0.0, 0.0, 0.0, 0.0, 0.0, 0.0, 0.0, 0.0, 0.0, 1.7184687396861672E9, 0.0, 2024-06-15 11:25:39.686
65.0, 48350.980681297864, 69710.3523862782, 9836.488644658166, -187500.02235174447, 74938.0901382077, -187500.02235174447, -163702.76823076824, -187500.02235174447, -0.22, 0.962, 0.076, 192.0, 0.0, 0.0, 0.0, 0.0, 0.0, 0.0, 0.0, 0.0, 0.0, 1.718468739686178E9, 0.0, 2024-06-15 11:25:39.686
66.0, 48068.052299982584, 69476.12845613105, 14078.000375986145, -187500.02235174447, 74634.35228280452, -187500.02235174447, -163876.21776774141, -187500.02235174447, -0.22, 0.962, 0.076, 192.0, 0.0, 0.0, 0.0, 0.0, 0.0, 0.0, 0.0, 0.0, 0.0, 1.718468739686188E9, 0.0, 2024-06-15 11:25:39.686
67.0, 48110.632373169945, 69686.72659238895, 12683.229170230528, -187500.02235174447, 75070.21129968301, -187500.02235174447, -163666.71486696182, -187500.02235174447, -0.22, 0.962, 0.076, 192.0, 0.0, 0.0, 0.0, 0.0, 0.0, 0.0, 0.0, 0.0, 0.0, 1.7184687396862044E9, 0.0, 2024-06-15 11:25:39.686
68.0, 48538.10948587769, 70160.29300216354, 7378.713176097057, -187500.02235174447, 75476.2083859692, -187500.02235174447, -163507.27987376213, -187500.02235174447, -0.22, 0.962, 0.076, 192.0, 0.0, 0.0, 0.0, 0.0, 0.0, 0.0, 0.0, 0.0, 0.0, 1.7184687396862142E9, 0.0, 2024-06-15 11:25:39.686
69.0, 48392.309056795726, 69767.90812825062, 8880.61629302696, -187500.02235174447, 75046.04906392682, -187500.02235174447, -163650.12987257598, -187500.02235174447, -0.212, 0.962, 0.074, 192.0, 249.0, 96.0, 30.0, 16.0, 2.0, 80.0, 0.0, 0.0, 0.0, 1.718468739686232E9, 0.0, 2024-06-15 11:25:39.686
70.0, 48106.34083823453, 69478.94477593241, 13694.198571944067, -187500.02235174447, 74609.89947437042, -187500.02235174447, -163884.8902445901, -187500.02235174447, -0.212, 0.962, 0.074, 192.0, 0.0, 0.0, 0.0, 0.0, 0.0, 0.0, 0.0, 0.0, 0.0, 1.7184687396862433E9, 0.0, 2024-06-15 11:25:39.686
71.0, 48063.00080573569, 69603.24282684838, 13400.809574223707, -187500.02235174447, 74971.46129267947, -187500.02235174447, -163732.6972165939, -187500.02235174447, -0.212, 0.962, 0.074, 192.0, 0.0, 0.0, 0.0, 0.0, 0.0, 0.0, 0.0, 0.0, 0.0, 1.7184687396862533E9, 0.0, 2024-06-15 11:25:39.686
72.0, 48458.04553723879, 70100.16680957876, 8126.89311824955, -187500.02235174447, 75430.47671681366, -187500.02235174447, -163497.13218177942, -187500.02235174447, -0.212, 0.962, 0.074, 192.0, 0.0, 0.0, 0.0, 0.0, 0.0, 0.0, 0.0, 0.0, 0.0, 1.718468739686264E9, 0.0, 2024-06-15 11:25:39.686
73.0, 48462.9405692745, 69883.98073720704, 8026.869061812051, -187500.02235174447, 75174.92922245614, -187500.02235174447, -163602.4536016528, -187500.02235174447, -0.212, 0.962, 0.074, 192.0, 0.0, 0.0, 0.0, 0.0, 0.0, 0.0, 0.0, 0.0, 0.0, 1.7184687396862736E9, 0.0, 2024-06-15 11:25:39.686
74.0, 48148.09389687704, 69506.07979370115, 13132.521585526656, -187500.02235174447, 74622.10352684301, -187500.02235174447, -163876.15071250807, -187500.02235174447, -0.212, 0.962, 0.074, 192.0, 0.0, 0.0, 0.0, 0.0, 0.0, 0.0, 0.0, 0.0, 0.0, 1.7184687396862864E9, 0.0, 2024-06-15 11:25:39.686
75.0, 48033.04946816558, 69538.66863711699, 13920.107653153857, -187500.02235174447, 74878.79096016777, -187500.02235174447, -163789.47064751037, -187500.02235174447, -0.212, 0.962, 0.074, 192.0, 0.0, 0.0, 0.0, 0.0, 0.0, 0.0, 0.0, 0.0, 0.0, 1.7184687396863196E9, 0.0, 2024-06-15 11:25:39.686
76.0, 48393.627809718586, 70045.29327694098, 9033.658687312447, -187500.02235174447, 75386.93551861471, -187500.02235174447, -163543.7132172243, -187500.02235174447, -0.212, 0.962, 0.074, 192.0, 0.0, 0.0, 0.0, 0.0, 0.0, 0.0, 0.0, 0.0, 0.0, 1.7184687396863432E9, 0.0, 2024-06-15 11:25:39.686
77.0, 48489.13681377612, 69946.92324959318, 7341.519873323426, -187500.02235174447, 75281.10000861884, -187500.02235174447, -163586.62856657847, -187500.02235174447, -0.212, 0.962, 0.074, 192.0, 0.0, 0.0, 0.0, 0.0, 0.0, 0.0, 0.0, 0.0, 0.0, 1.7184687396863668E9, 0.0, 2024-06-15 11:25:39.686
78.0, 48156.02876615868, 69488.62308128156, 12414.114166988633, -187500.02235174447, 74640.16373636291, -187500.02235174447, -163850.78148255128, -187500.02235174447, -0.212, 0.962, 0.074, 192.0, 0.0, 0.0, 0.0, 0.0, 0.0, 0.0, 0.0, 0.0, 0.0, 1.718468739686388E9, 0.0, 2024-06-15 11:25:39.686
79.0, 47975.69489189326, 69440.3433132581, 14244.766741367192, -187500.02235174447, 74758.56092674266, -187500.02235174447, -163837.7727672783, -187500.02235174447, -0.212, 0.962, 0.074, 192.0, 0.0, 0.0, 0.0, 0.0, 0.0, 0.0, 0.0, 0.0, 0.0, 1.7184687396864123E9, 0.0, 2024-06-15 11:25:39.686
80.0, 48261.88662789901, 69895.31307164587, 10099.591028641586, -187500.02235174447, 75267.4654445011, -187500.02235174447, -163551.87160395045, -187500.02235174447, -0.20800000000000002, 0.964, 0.07200000000000001, 192.0, 249.0, 128.0, 30.0, 32.0, 2.0, 64.0, 0.0, 0.0, 0.0, 1.718468739686443E9, 0.0, 2024-06-15 11:25:39.686
81.0, 48503.01724708286, 70008.18938114517, 6963.551874584184, -187500.02235174447, 75355.86659382183, -187500.02235174447, -163544.67434223584, -187500.02235174447, -0.20800000000000002, 0.964, 0.07200000000000001, 192.0, 0.0, 0.0, 0.0, 0.0, 0.0, 0.0, 0.0, 0.0, 0.0, 1.7184687396864676E9, 0.0, 2024-06-15 11:25:39.686
82.0, 48202.54274637017, 69530.66671260199, 11559.271700295414, -187500.02235174447, 74719.17715301242, -187500.02235174447, -163812.5599995327, -187500.02235174447, -0.20800000000000002, 0.964, 0.07200000000000001, 192.0, 0.0, 0.0, 0.0, 0.0, 0.0, 0.0, 0.0, 0.0, 0.0, 1.7184687396864843E9, 0.0, 2024-06-15 11:25:39.686
83.0, 47981.17106928481, 69417.27631298022, 14356.905443299467, -187500.02235174447, 74690.2763474317, -187500.02235174447, -163888.6900411475, -187500.02235174447, -0.20800000000000002, 0.964, 0.07200000000000001, 192.0, 0.0, 0.0, 0.0, 0.0, 0.0, 0.0, 0.0, 0.0, 0.0, 1.7184687396865025E9, 0.0, 2024-06-15 11:25:39.686
84.0, 48166.75760349722, 69789.76813432791, 11143.998640060263, -187500.02235174447, 75177.5443765574, -187500.02235174447, -163604.9122935429, -187500.02235174447, -0.20800000000000002, 0.964, 0.07200000000000001, 192.0, 0.0, 0.0, 0.0, 0.0, 0.0, 0.0, 0.0, 0.0, 0.0, 1.7184687396865363E9, 0.0, 2024-06-15 11:25:39.686
85.0, 48527.11242760568, 70077.16686453424, 6853.827161053081, -187500.02235174447, 75421.4019085648, -187500.02235174447, -163545.68017073633, -187500.02235174447, -0.20800000000000002, 0.964, 0.07200000000000001, 192.0, 0.0, 0.0, 0.0, 0.0, 0.0, 0.0, 0.0, 0.0, 0.0, 1.7184687396865864E9, 0.0, 2024-06-15 11:25:39.686
86.0, 48237.92555784292, 69573.17973055599, 10602.192354463621, -187500.02235174447, 74811.78043029076, -187500.02235174447, -163773.153874058, -187500.02235174447, -0.20800000000000002, 0.964, 0.07200000000000001, 192.0, 0.0, 0.0, 0.0, 0.0, 0.0, 0.0, 0.0, 0.0, 0.0, 1.718468739686608E9, 0.0, 2024-06-15 11:25:39.686
87.0, 48002.896964895364, 69413.07418502262, 14262.961061353812, -187500.02235174447, 74629.09962285752, -187500.02235174447, -163934.01937890286, -187500.02235174447, -0.20800000000000002, 0.964, 0.07200000000000001, 192.0, 0.0, 0.0, 0.0, 0.0, 0.0, 0.0, 0.0, 0.0, 0.0, 1.7184687396866343E9, 0.0, 2024-06-15 11:25:39.686
88.0, 48098.964762564276, 69685.8995778441, 12099.960398669291, -187500.02235174447, 75095.73699185098, -187500.02235174447, -163681.1764456244, -187500.02235174447, -0.20800000000000002, 0.964, 0.07200000000000001, 192.0, 0.0, 0.0, 0.0, 0.0, 0.0, 0.0, 0.0, 0.0, 0.0, 1.7184687396866484E9, 0.0, 2024-06-15 11:25:39.686
89.0, 48525.36899153817, 70114.51662951907, 7074.416527082507, -187500.02235174447, 75449.78862402304, -187500.02235174447, -163554.2185371183, -187500.02235174447, -0.20800000000000002, 0.964, 0.07200000000000001, 192.0, 0.0, 0.0, 0.0, 0.0, 0.0, 0.0, 0.0, 0.0, 0.0, 1.7184687396866612E9, 0.0, 2024-06-15 11:25:39.686
90.0, 48325.56674785218, 69680.08812428571, 9619.944944375151, -187500.02235174447, 74942.89576326558, -187500.02235174447, -163728.7409578253, -187500.02235174447, -0.216, 0.974, 0.068, 192.0, 249.0, 64.0, 30.0, 112.0, 2.0, 32.0, 0.0, 0.0, 0.0, 1.7184687396866732E9, 0.0, 2024-06-15 11:25:39.686
91.0, 48052.56254107506, 69437.88462136801, 14026.591363738939, -187500.02235174447, 74601.07053531057, -187500.02235174447, -163940.21081211697, -187500.02235174447, -0.216, 0.974, 0.068, 192.0, 0.0, 0.0, 0.0, 0.0, 0.0, 0.0, 0.0, 0.0, 0.0, 1.718468739686684E9, 0.0, 2024-06-15 11:25:39.686
92.0, 48031.12721814242, 69585.58494872868, 12955.13814152934, -187500.02235174447, 74997.00933659189, -187500.02235174447, -163735.06650150617, -187500.02235174447, -0.216, 0.974, 0.068, 192.0, 0.0, 0.0, 0.0, 0.0, 0.0, 0.0, 0.0, 0.0, 0.0, 1.7184687396866963E9, 0.0, 2024-06-15 11:25:39.686
93.0, 48430.262318880836, 70047.19317521968, 7663.474400457669, -187500.02235174447, 75400.05599260998, -187500.02235174447, -163512.93486510933, -187500.02235174447, -0.216, 0.974, 0.068, 192.0, 0.0, 0.0, 0.0, 0.0, 0.0, 0.0, 0.0, 0.0, 0.0, 1.7184687396867075E9, 0.0, 2024-06-15 11:25:39.686
94.0, 48356.68037613397, 69733.84406970073, 8719.482567248651, -187500.02235174447, 75034.40380506561, -187500.02235174447, -163645.27954402918, -187500.02235174447, -0.216, 0.974, 0.068, 192.0, 0.0, 0.0, 0.0, 0.0, 0.0, 0.0, 0.0, 0.0, 0.0, 1.7184687396867197E9, 0.0, 2024-06-15 11:25:39.686
95.0, 48094.87439332896, 69450.42395000743, 13620.54957396383, -187500.02235174447, 74587.23480549274, -187500.02235174447, -163916.20503857196, -187500.02235174447, -0.216, 0.974, 0.068, 192.0, 0.0, 0.0, 0.0, 0.0, 0.0, 0.0, 0.0, 0.0, 0.0, 1.7184687396867304E9, 0.0, 2024-06-15 11:25:39.686
96.0, 48010.65302022136, 69522.48597413134, 13637.514548005409, -187500.02235174447, 74917.97356819792, -187500.02235174447, -163779.03238284975, -187500.02235174447, -0.216, 0.974, 0.068, 192.0, 0.0, 0.0, 0.0, 0.0, 0.0, 0.0, 0.0, 0.0, 0.0, 1.718468739686742E9, 0.0, 2024-06-15 11:25:39.686
97.0, 48405.00484764634, 70026.4284046207, 8446.210139538067, -187500.02235174447, 75389.43891399371, -187500.02235174447, -163538.594667744, -187500.02235174447, -0.216, 0.974, 0.068, 192.0, 0.0, 0.0, 0.0, 0.0, 0.0, 0.0, 0.0, 0.0, 0.0, 1.7184687396867535E9, 0.0, 2024-06-15 11:25:39.686
98.0, 48429.30119386926, 69839.8807453967, 7890.32225493458, -187500.02235174447, 75180.36069635877, -187500.02235174447, -163624.93945657485, -187500.02235174447, -0.216, 0.974, 0.068, 192.0, 0.0, 0.0, 0.0, 0.0, 0.0, 0.0, 0.0, 0.0, 0.0, 1.7184687396867678E9, 0.0, 2024-06-15 11:25:39.686
99.0, 48109.69359990282, 69449.46282499586, 13023.981514451685, -187500.02235174447, 74590.98989856124, -187500.02235174447, -163893.6968319055, -187500.02235174447, -0.216, 0.974, 0.068, 192.0, 0.0, 0.0, 0.0, 0.0, 0.0, 0.0, 0.0, 0.0, 0.0, 1.7184687396867795E9, 0.0, 2024-06-15 11:25:39.686
100.0, 47977.93006633879, 69458.67174371144, 14103.637826876382, -187500.02235174447, 74814.66380532549, -187500.02235174447, -163838.48802310086, -187500.02235174447, -0.216, 0.9580000000000001, 0.07, 192.0, 249.0, 64.0, 29.0, 240.0, 2.0, 48.0, 0.0, 0.0, 0.0, 1.71846873968679E9, 0.0, 2024-06-15 11:25:39.686
101.0, 48314.81555876918, 69943.54813618043, 9416.76758727641, -187500.02235174447, 75324.30593065095, -187500.02235174447, -163561.32639185505, -187500.02235174447, -0.216, 0.9580000000000001, 0.07, 192.0, 0.0, 0.0, 0.0, 0.0, 0.0, 0.0, 0.0, 0.0, 0.0, 1.7184687396868026E9, 0.0, 2024-06-15 11:25:39.686
102.0, 48481.02313053884, 69937.40140645522, 7285.126422062686, -187500.02235174447, 75290.80066571244, -187500.02235174447, -163592.64118583695, -187500.02235174447, -0.216, 0.9580000000000001, 0.07, 192.0, 0.0, 0.0, 0.0, 0.0, 0.0, 0.0, 0.0, 0.0, 0.0, 1.7184687396868148E9, 0.0, 2024-06-15 11:25:39.686
103.0, 48137.32035604958, 69456.66008671047, 12265.13979019401, -187500.02235174447, 74640.36490206301, -187500.02235174447, -163852.68138082998, -187500.02235174447, -0.216, 0.9580000000000001, 0.07, 192.0, 0.0, 0.0, 0.0, 0.0, 0.0, 0.0, 0.0, 0.0, 0.0, 1.7184687396868265E9, 0.0, 2024-06-15 11:25:39.686
104.0, 47967.961188311725, 69407.82152507562, 14371.635242895514, -187500.02235174447, 74742.93705736841, -187500.02235174447, -163876.8212648417, -187500.02235174447, -0.216, 0.9580000000000001, 0.07, 192.0, 0.0, 0.0, 0.0, 0.0, 0.0, 0.0, 0.0, 0.0, 0.0, 1.7184687396868389E9, 0.0, 2024-06-15 11:25:39.686
105.0, 48212.06458950813, 69822.7816608884, 10468.461867387517, -187500.02235174447, 75244.19727852312, -187500.02235174447, -163595.63631959396, -187500.02235174447, -0.216, 0.9580000000000001, 0.07, 192.0, 0.0, 0.0, 0.0, 0.0, 0.0, 0.0, 0.0, 0.0, 0.0, 1.7184687396868575E9, 0.0, 2024-06-15 11:25:39.686
106.0, 48495.30589524578, 69998.24285486256, 6958.366269870552, -187500.02235174447, 75373.1891957747, -187500.02235174447, -163575.96678447328, -187500.02235174447, -0.216, 0.9580000000000001, 0.07, 192.0, 0.0, 0.0, 0.0, 0.0, 0.0, 0.0, 0.0, 0.0, 0.0, 1.7184687396868691E9, 0.0, 2024-06-15 11:25:39.686
107.0, 48171.9208564664, 69479.68238349943, 11368.67837532501, -187500.02235174447, 74713.45510643187, -187500.02235174447, -163821.6795112705, -187500.02235174447, -0.216, 0.9580000000000001, 0.07, 192.0, 0.0, 0.0, 0.0, 0.0, 0.0, 0.0, 0.0, 0.0, 0.0, 1.7184687396868799E9, 0.0, 2024-06-15 11:25:39.686
108.0, 47971.939798824766, 69391.28123417869, 14432.253173858307, -187500.02235174447, 74644.29880908714, -187500.02235174447, -163918.44021301751, -187500.02235174447, -0.216, 0.9580000000000001, 0.07, 192.0, 0.0, 0.0, 0.0, 0.0, 0.0, 0.0, 0.0, 0.0, 0.0, 1.7184687396868913E9, 0.0, 2024-06-15 11:25:39.686
109.0, 48144.741135208744, 69737.35329358022, 11494.496344863934, -187500.02235174447, 75146.02841687542, -187500.02235174447, -163656.20954706785, -187500.02235174447, -0.216, 0.9580000000000001, 0.07, 192.0, 0.0, 0.0, 0.0, 0.0, 0.0, 0.0, 0.0, 0.0, 0.0, 1.7184687396869073E9, 0.0, 2024-06-15 11:25:39.686
110.0, 48504.35835175018, 70062.034733538, 6945.335202853108, -187500.02235174447, 75398.75959143158, -187500.02235174447, -163570.02122044816, -187500.02235174447, -0.216, 0.9560000000000001, 0.074, 192.0, 249.0, 64.0, 29.0, 224.0, 2.0, 80.0, 0.0, 0.0, 0.0, 1.7184687396869185E9, 0.0, 2024-06-15 11:25:39.686
111.0, 48234.46103745235, 69561.2662507613, 10392.287122283831, -187500.02235174447, 74800.38104061855, -187500.02235174447, -163783.659193952, -187500.02235174447, -0.216, 0.9560000000000001, 0.074, 192.0, 0.0, 0.0, 0.0, 0.0, 0.0, 0.0, 0.0, 0.0, 0.0, 1.7184687396869292E9, 0.0, 2024-06-15 11:25:39.686
112.0, 47986.133156553886, 69371.23171940229, 14310.145593898964, -187500.02235174447, 74573.44377916382, -187500.02235174447, -163942.4459865625, -187500.02235174447, -0.216, 0.9560000000000001, 0.074, 192.0, 0.0, 0.0, 0.0, 0.0, 0.0, 0.0, 0.0, 0.0, 0.0, 1.7184687396869404E9, 0.0, 2024-06-15 11:25:39.686
113.0, 48062.73258480222, 69619.93957995648, 12451.262766273352, -187500.02235174447, 75030.7604707194, -187500.02235174447, -163700.19778015587, -187500.02235174447, -0.216, 0.9560000000000001, 0.074, 192.0, 0.0, 0.0, 0.0, 0.0, 0.0, 0.0, 0.0, 0.0, 0.0, 1.718468739686967E9, 0.0, 2024-06-15 11:25:39.686
114.0, 48468.148525732584, 70050.09890199888, 7278.666767915102, -187500.02235174447, 75399.56425423197, -187500.02235174447, -163553.88326095144, -187500.02235174447, -0.216, 0.9560000000000001, 0.074, 192.0, 0.0, 0.0, 0.0, 0.0, 0.0, 0.0, 0.0, 0.0, 0.0, 1.7184687396869783E9, 0.0, 2024-06-15 11:25:39.686
115.0, 48270.246180325295, 69611.5353240413, 9412.811328507822, -187500.02235174447, 74906.64123375907, -187500.02235174447, -163727.645722347, -187500.02235174447, -0.216, 0.9560000000000001, 0.074, 192.0, 0.0, 0.0, 0.0, 0.0, 0.0, 0.0, 0.0, 0.0, 0.0, 1.71846873968699E9, 0.0, 2024-06-15 11:25:39.686
116.0, 47980.99225532917, 69344.7672539672, 14049.054866916522, -187500.02235174447, 74512.1329441229, -187500.02235174447, -163909.94655012447, -187500.02235174447, -0.216, 0.9560000000000001, 0.074, 192.0, 0.0, 0.0, 0.0, 0.0, 0.0, 0.0, 0.0, 0.0, 0.0, 1.7184687396870003E9, 0.0, 2024-06-15 11:25:39.687
117.0, 48006.49559575267, 69542.9154685635, 13282.278273377213, -187500.02235174447, 74935.96672248445, -187500.02235174447, -163725.9469897684, -187500.02235174447, -0.216, 0.9560000000000001, 0.074, 192.0, 0.0, 0.0, 0.0, 0.0, 0.0, 0.0, 0.0, 0.0, 0.0, 1.71846873968701E9, 0.0, 2024-06-15 11:25:39.687
118.0, 48450.334185401705, 70070.50604468657, 7918.083121548072, -187500.02235174447, 75405.06278336798, -187500.02235174447, -163538.1476328549, -187500.02235174447, -0.216, 0.9560000000000001, 0.074, 192.0, 0.0, 0.0, 0.0, 0.0, 0.0, 0.0, 0.0, 0.0, 0.0, 1.7184687396870203E9, 0.0, 2024-06-15 11:25:39.687
119.0, 48369.35381524012, 69751.3678373537, 8507.073939689868, -187500.02235174447, 75063.03638971286, -187500.02235174447, -163669.39707629647, -187500.02235174447, -0.216, 0.9560000000000001, 0.074, 192.0, 0.0, 0.0, 0.0, 0.0, 0.0, 0.0, 0.0, 0.0, 0.0, 1.7184687396870296E9, 0.0, 2024-06-15 11:25:39.687
120.0, 48054.55184633158, 69392.1753039569, 13534.495357810898, -187500.02235174447, 74540.47495609224, -187500.02235174447, -163930.39839630108, -187500.02235174447, -0.216, 0.9560000000000001, 0.074, 192.0, 0.0, 0.0, 0.0, 0.0, 0.0, 0.0, 0.0, 0.0, 0.0, 1.7184687396870391E9, 0.0, 2024-06-15 11:25:39.687
121.0, 47969.61521740141, 69466.33839205961, 13869.056268817934, -187500.02235174447, 74849.10784353112, -187500.02235174447, -163806.27915934077, -187500.02235174447, -0.226, 0.9580000000000001, 0.068, 192.0, 248.0, 240.0, 29.0, 240.0, 2.0, 32.0, 0.0, 0.0, 0.0, 1.718468740164205E9, 0.0, 2024-06-15 11:25:40.164
122.0, 48357.19446625644, 69974.75117144003, 8794.427966407296, -187500.02235174447, 75338.58869535789, -187500.02235174447, -163531.97855138525, -187500.02235174447, -0.226, 0.9580000000000001, 0.068, 192.0, 0.0, 0.0, 0.0, 0.0, 0.0, 0.0, 0.0, 0.0, 0.0, 1.718468740164367E9, 0.0, 2024-06-15 11:25:40.164
123.0, 48467.12034548764, 69873.67658301313, 7746.377020642402, -187500.02235174447, 75214.91649328667, -187500.02235174447, -163622.59252340705, -187500.02235174447, -0.226, 0.9580000000000001, 0.068, 192.0, 0.0, 0.0, 0.0, 0.0, 0.0, 0.0, 0.0, 0.0, 0.0, 1.7184687401643791E9, 0.0, 2024-06-15 11:25:40.164
124.0, 48123.0599430871, 69451.7427029303, 12856.410486270248, -187500.02235174447, 74618.77311691918, -187500.02235174447, -163927.98440789993, -187500.02235174447, -0.226, 0.9580000000000001, 0.068, 192.0, 0.0, 0.0, 0.0, 0.0, 0.0, 0.0, 0.0, 0.0, 0.0, 1.7184687401643896E9, 0.0, 2024-06-15 11:25:40.164
125.0, 47924.73291453516, 69392.44352489038, 14286.475096520793, -187500.02235174447, 74753.91176389597, -187500.02235174447, -163851.60849709614, -187500.02235174447, -0.226, 0.9580000000000001, 0.068, 192.0, 0.0, 0.0, 0.0, 0.0, 0.0, 0.0, 0.0, 0.0, 0.0, 1.7184687401644156E9, 0.0, 2024-06-15 11:25:40.164
126.0, 48275.58824725011, 69897.43648736912, 9795.048510438028, -187500.02235174447, 75278.8648341733, -187500.02235174447, -163561.79577848862, -187500.02235174447, -0.226, 0.9580000000000001, 0.068, 192.0, 0.0, 0.0, 0.0, 0.0, 0.0, 0.0, 0.0, 0.0, 0.0, 1.7184687401644254E9, 0.0, 2024-06-15 11:25:40.164
127.0, 48471.858915312165, 69942.38584546874, 7220.842805009223, -187500.02235174447, 75307.38566009828, -187500.02235174447, -163592.9541102593, -187500.02235174447, -0.226, 0.9580000000000001, 0.068, 192.0, 0.0, 0.0, 0.0, 0.0, 0.0, 0.0, 0.0, 0.0, 0.0, 1.7184687401644344E9, 0.0, 2024-06-15 11:25:40.164
128.0, 48126.010373355195, 69442.55613595917, 12079.329738537042, -187500.02235174447, 74649.10443414503, -187500.02235174447, -163864.6172123691, -187500.02235174447, -0.226, 0.9580000000000001, 0.068, 192.0, 0.0, 0.0, 0.0, 0.0, 0.0, 0.0, 0.0, 0.0, 0.0, 1.7184687401644435E9, 0.0, 2024-06-15 11:25:40.164
129.0, 47923.77178952358, 69359.16177739642, 14493.29578796575, -187500.02235174447, 74678.69814380386, -187500.02235174447, -163892.84746561619, -187500.02235174447, -0.226, 0.9580000000000001, 0.068, 192.0, 0.0, 0.0, 0.0, 0.0, 0.0, 0.0, 0.0, 0.0, 0.0, 1.7184687401644523E9, 0.0, 2024-06-15 11:25:40.164
130.0, 48190.09282470856, 69796.76423034242, 10825.933316461244, -187500.02235174447, 75206.71340307158, -187500.02235174447, -163622.2795989847, -187500.02235174447, -0.226, 0.9580000000000001, 0.068, 192.0, 0.0, 0.0, 0.0, 0.0, 0.0, 0.0, 0.0, 0.0, 0.0, 1.7184687401644614E9, 0.0, 2024-06-15 11:25:40.164
131.0, 48482.7442148619, 70001.10387815283, 6965.563531585161, -187500.02235174447, 75369.72467538413, -187500.02235174447, -163577.35259262953, -187500.02235174447, -0.224, 0.9540000000000001, 0.074, 192.0, 249.0, 0.0, 29.0, 208.0, 2.0, 80.0, 0.0, 0.0, 0.0, 1.7184687401644704E9, 0.0, 2024-06-15 11:25:40.164
132.0, 48159.58269352707, 69481.55993003368, 11169.099649083573, -187500.02235174447, 74705.76610633923, -187500.02235174447, -163798.52310401478, -187500.02235174447, -0.224, 0.9540000000000001, 0.074, 192.0, 0.0, 0.0, 0.0, 0.0, 0.0, 0.0, 0.0, 0.0, 0.0, 1.7184687401644795E9, 0.0, 2024-06-15 11:25:40.164
133.0, 47956.24887421714, 69369.39887635695, 14490.166543742007, -187500.02235174447, 74611.15117205992, -187500.02235174447, -163920.31775955175, -187500.02235174447, -0.224, 0.9540000000000001, 0.074, 192.0, 0.0, 0.0, 0.0, 0.0, 0.0, 0.0, 0.0, 0.0, 0.0, 1.718468740164488E9, 0.0, 2024-06-15 11:25:40.164
134.0, 48084.61494262397, 69675.50601667239, 11854.292375361012, -187500.02235174447, 75093.45711391653, -187500.02235174447, -163658.131797091, -187500.02235174447, -0.224, 0.9540000000000001, 0.074, 192.0, 0.0, 0.0, 0.0, 0.0, 0.0, 0.0, 0.0, 0.0, 0.0, 1.718468740164497E9, 0.0, 2024-06-15 11:25:40.164
135.0, 48481.2466479834, 70049.9871432766, 7082.016120197311, -187500.02235174447, 75397.26202455307, -187500.02235174447, -163545.32254282507, -187500.02235174447, -0.224, 0.9540000000000001, 0.074, 192.0, 0.0, 0.0, 0.0, 0.0, 0.0, 0.0, 0.0, 0.0, 0.0, 1.7184687401645055E9, 0.0, 2024-06-15 11:25:40.164
136.0, 48238.39494447648, 69571.23512878838, 10176.302215612199, -187500.02235174447, 74838.9154480595, -187500.02235174447, -163756.77004537225, -187500.02235174447, -0.224, 0.9540000000000001, 0.074, 192.0, 0.0, 0.0, 0.0, 0.0, 0.0, 0.0, 0.0, 0.0, 0.0, 1.718468740164514E9, 0.0, 2024-06-15 11:25:40.164
137.0, 47969.771679612604, 69349.81874821411, 14317.432262591394, -187500.02235174447, 74550.30972365258, -187500.02235174447, -163935.65105624808, -187500.02235174447, -0.224, 0.9540000000000001, 0.074, 192.0, 0.0, 0.0, 0.0, 0.0, 0.0, 0.0, 0.0, 0.0, 0.0, 1.718468740164523E9, 0.0, 2024-06-15 11:25:40.164
138.0, 48036.64809902288, 69596.76082095633, 12746.529310527958, -187500.02235174447, 75003.98308086194, -187500.02235174447, -163731.2443532043, -187500.02235174447, -0.224, 0.9540000000000001, 0.074, 192.0, 0.0, 0.0, 0.0, 0.0, 0.0, 0.0, 0.0, 0.0, 0.0, 1.7184687401645317E9, 0.0, 2024-06-15 11:25:40.164
139.0, 48453.39637439208, 70054.92687880121, 7466.488476573048, -187500.02235174447, 75395.31742278546, -187500.02235174447, -163573.91042398338, -187500.02235174447, -0.224, 0.9540000000000001, 0.074, 192.0, 0.0, 0.0, 0.0, 0.0, 0.0, 0.0, 0.0, 0.0, 0.0, 1.7184687401645403E9, 0.0, 2024-06-15 11:25:40.164
140.0, 48267.27339831274, 69625.95219921497, 9179.704985583423, -187500.02235174447, 74922.89095197809, -187500.02235174447, -163724.58353335664, -187500.02235174447, -0.224, 0.9540000000000001, 0.074, 192.0, 0.0, 0.0, 0.0, 0.0, 0.0, 0.0, 0.0, 0.0, 0.0, 1.718468740164549E9, 0.0, 2024-06-15 11:25:40.164
141.0, 47979.20411577274, 69343.89553593345, 13937.497310340084, -187500.02235174447, 74497.40314452686, -187500.02235174447, -163945.95521044199, -187500.02235174447, -0.226, 0.962, 0.076, 192.0, 248.0, 240.0, 30.0, 16.0, 2.0, 96.0, 0.0, 0.0, 0.0, 1.7184687401645577E9, 0.0, 2024-06-15 11:25:40.164
142.0, 47951.55500788153, 69481.82815096715, 13501.906514395061, -187500.02235174447, 74879.17093982351, -187500.02235174447, -163767.02949607724, -187500.02235174447, -0.226, 0.962, 0.076, 192.0, 0.0, 0.0, 0.0, 0.0, 0.0, 0.0, 0.0, 0.0, 0.0, 1.7184687401645665E9, 0.0, 2024-06-15 11:25:40.164
143.0, 48375.5676001987, 70000.61213977482, 8207.940543644494, -187500.02235174447, 75348.1328902403, -187500.02235174447, -163532.2020688298, -187500.02235174447, -0.226, 0.962, 0.076, 192.0, 0.0, 0.0, 0.0, 0.0, 0.0, 0.0, 0.0, 0.0, 0.0, 1.7184687401645753E9, 0.0, 2024-06-15 11:25:40.164
144.0, 48357.0156523008, 69750.3173053643, 8330.249289303934, -187500.02235174447, 75071.75357005044, -187500.02235174447, -163648.2746777862, -187500.02235174447, -0.226, 0.962, 0.076, 192.0, 0.0, 0.0, 0.0, 0.0, 0.0, 0.0, 0.0, 0.0, 0.0, 1.7184687401645844E9, 0.0, 2024-06-15 11:25:40.164
145.0, 48030.00963091965, 69372.41636185841, 13433.688990317463, -187500.02235174447, 74523.59938902849, -187500.02235174447, -163903.75511691035, -187500.02235174447, -0.226, 0.962, 0.076, 192.0, 0.0, 0.0, 0.0, 0.0, 0.0, 0.0, 0.0, 0.0, 0.0, 1.7184687401645932E9, 0.0, 2024-06-15 11:25:40.164
146.0, 47925.91755699129, 69420.45026069287, 14091.120849981411, -187500.02235174447, 74794.65899403799, -187500.02235174447, -163787.52604574276, -187500.02235174447, -0.226, 0.962, 0.076, 192.0, 0.0, 0.0, 0.0, 0.0, 0.0, 0.0, 0.0, 0.0, 0.0, 1.7184687401646018E9, 0.0, 2024-06-15 11:25:40.164
147.0, 48313.69797154641, 69948.39846472723, 9148.032563690253, -187500.02235174447, 75301.10481990634, -187500.02235174447, -163520.31094077957, -187500.02235174447, -0.226, 0.962, 0.076, 192.0, 0.0, 0.0, 0.0, 0.0, 0.0, 0.0, 0.0, 0.0, 0.0, 1.7184687401646123E9, 0.0, 2024-06-15 11:25:40.164
148.0, 48414.21376636193, 69856.01870489345, 7640.094475757418, -187500.02235174447, 75199.51614135697, -187500.02235174447, -163602.83358130857, -187500.02235174447, -0.226, 0.962, 0.076, 192.0, 0.0, 0.0, 0.0, 0.0, 0.0, 0.0, 0.0, 0.0, 0.0, 1.718468740164642E9, 0.0, 2024-06-15 11:25:40.164
149.0, 48052.2943201416, 69385.26861492022, 12727.552679485403, -187500.02235174447, 74553.08133996504, -187500.02235174447, -163870.0710380162, -187500.02235174447, -0.226, 0.962, 0.076, 192.0, 0.0, 0.0, 0.0, 0.0, 0.0, 0.0, 0.0, 0.0, 0.0, 1.718468740164672E9, 0.0, 2024-06-15 11:25:40.164
150.0, 47897.08380664395, 69368.28128913419, 14415.824641683655, -187500.02235174447, 74688.21998694181, -187500.02235174447, -163846.4228923825, -187500.02235174447, -0.226, 0.962, 0.076, 192.0, 0.0, 0.0, 0.0, 0.0, 0.0, 0.0, 0.0, 0.0, 0.0, 1.7184687401646812E9, 0.0, 2024-06-15 11:25:40.164
151.0, 48219.485368667294, 69847.92737340061, 10148.183721087424, -187500.02235174447, 75217.37518517676, -187500.02235174447, -163572.52461582716, -187500.02235174447, -0.23, 0.964, 0.07, 192.0, 248.0, 208.0, 30.0, 32.0, 2.0, 48.0, 0.0, 0.0, 0.0, 1.7184687401646912E9, 0.0, 2024-06-15 11:25:40.164
152.0, 48440.8346940082, 69930.07003427387, 7199.452185565494, -187500.02235174447, 75280.13888360726, -187500.02235174447, -163573.39633386093, -187500.02235174447, -0.23, 0.964, 0.07, 192.0, 0.0, 0.0, 0.0, 0.0, 0.0, 0.0, 0.0, 0.0, 0.0, 1.7184687401647007E9, 0.0, 2024-06-15 11:25:40.164
153.0, 48102.4069312104, 69430.53089744221, 11875.124201193357, -187500.02235174447, 74616.113259329, -187500.02235174447, -163840.20910742393, -187500.02235174447, -0.23, 0.964, 0.07, 192.0, 0.0, 0.0, 0.0, 0.0, 0.0, 0.0, 0.0, 0.0, 0.0, 1.7184687401647263E9, 0.0, 2024-06-15 11:25:40.164
154.0, 47890.780614707546, 69328.361073537, 14560.73100098741, -187500.02235174447, 74600.24352076573, -187500.02235174447, -163881.11279977713, -187500.02235174447, -0.23, 0.964, 0.07, 192.0, 0.0, 0.0, 0.0, 0.0, 0.0, 0.0, 0.0, 0.0, 0.0, 1.7184687401647353E9, 0.0, 2024-06-15 11:25:40.164
155.0, 48097.623657896955, 69713.5039822464, 11215.41246359497, -187500.02235174447, 75097.1228000072, -187500.02235174447, -163588.19318869035, -187500.02235174447, -0.23, 0.964, 0.07, 192.0, 0.0, 0.0, 0.0, 0.0, 0.0, 0.0, 0.0, 0.0, 0.0, 1.718468740164744E9, 0.0, 2024-06-15 11:25:40.164
156.0, 48446.95907198895, 69997.03586066197, 7075.578817794182, -187500.02235174447, 75312.43715434519, -187500.02235174447, -163523.7978129146, -187500.02235174447, -0.23, 0.964, 0.07, 192.0, 0.0, 0.0, 0.0, 0.0, 0.0, 0.0, 0.0, 0.0, 0.0, 1.7184687401647532E9, 0.0, 2024-06-15 11:25:40.164
157.0, 48146.797495698636, 69479.48121779933, 10960.423762848826, -187500.02235174447, 74681.40270488294, -187500.02235174447, -163759.47460645135, -187500.02235174447, -0.23, 0.964, 0.07, 192.0, 0.0, 0.0, 0.0, 0.0, 0.0, 0.0, 0.0, 0.0, 0.0, 1.7184687401647775E9, 0.0, 2024-06-15 11:25:40.164
158.0, 47933.29363266154, 69342.24150684375, 14507.600904417146, -187500.02235174447, 74536.07166243454, -187500.02235174447, -163911.91350363655, -187500.02235174447, -0.23, 0.964, 0.07, 192.0, 0.0, 0.0, 0.0, 0.0, 0.0, 0.0, 0.0, 0.0, 0.0, 1.7184687401647863E9, 0.0, 2024-06-15 11:25:40.164
159.0, 48045.32057587154, 69633.46238535194, 12180.985472319779, -187500.02235174447, 75013.68373795555, -187500.02235174447, -163657.7294656908, -187500.02235174447, -0.23, 0.964, 0.07, 192.0, 0.0, 0.0, 0.0, 0.0, 0.0, 0.0, 0.0, 0.0, 0.0, 1.718468740164795E9, 0.0, 2024-06-15 11:25:40.164
160.0, 48430.01644969183, 70014.6713870372, 7270.329567233273, -187500.02235174447, 75325.15529694025, -187500.02235174447, -163510.07384181904, -187500.02235174447, -0.23, 0.964, 0.07, 192.0, 0.0, 0.0, 0.0, 0.0, 0.0, 0.0, 0.0, 0.0, 0.0, 1.7184687401648035E9, 0.0, 2024-06-15 11:25:40.164
161.0, 48214.07624650911, 69560.66275366102, 9968.810971833584, -187500.02235174447, 74799.24110165132, -187500.02235174447, -163715.68753906342, -187500.02235174447, -0.23, 0.964, 0.07, 192.0, 0.0, 0.0, 0.0, 0.0, 0.0, 0.0, 0.0, 0.0, 0.0, 1.7184687401648123E9, 0.0, 2024-06-15 11:25:40.164
162.0, 47957.031185273074, 69340.29690507615, 14264.77155265469, -187500.02235174447, 74491.41287701284, -187500.02235174447, -163935.82987020374, -187500.02235174447, -0.224, 0.964, 0.078, 192.0, 249.0, 0.0, 30.0, 32.0, 2.0, 112.0, 0.0, 0.0, 0.0, 1.7184687401648211E9, 0.0, 2024-06-15 11:25:40.164
163.0, 47963.4237841873, 69516.54041010623, 13048.993116497173, -187500.02235174447, 74904.89779769156, -187500.02235174447, -163707.93148373743, -187500.02235174447, -0.224, 0.964, 0.078, 192.0, 0.0, 0.0, 0.0, 0.0, 0.0, 0.0, 0.0, 0.0, 0.0, 1.71846874016483E9, 0.0, 2024-06-15 11:25:40.164
164.0, 48421.50043505436, 70034.00564599106, 7748.679250321299, -187500.02235174447, 75344.15427972726, -187500.02235174447, -163528.7375484392, -187500.02235174447, -0.224, 0.964, 0.078, 192.0, 0.0, 0.0, 0.0, 0.0, 0.0, 0.0, 0.0, 0.0, 0.0, 1.7184687401648393E9, 0.0, 2024-06-15 11:25:40.164
165.0, 48293.76021549228, 69669.02401078034, 8992.598532748048, -187500.02235174447, 74954.11633898214, -187500.02235174447, -163690.8994544625, -187500.02235174447, -0.224, 0.964, 0.078, 192.0, 0.0, 0.0, 0.0, 0.0, 0.0, 0.0, 0.0, 0.0, 0.0, 1.7184687401648479E9, 0.0, 2024-06-15 11:25:40.164
166.0, 47986.69195016527, 69350.73516973677, 13847.777408096483, -187500.02235174447, 74484.46148448724, -187500.02235174447, -163942.82596621825, -187500.02235174447, -0.224, 0.964, 0.078, 192.0, 0.0, 0.0, 0.0, 0.0, 0.0, 0.0, 0.0, 0.0, 0.0, 1.7184687401648564E9, 0.0, 2024-06-15 11:25:40.164
167.0, 47920.48608308865, 69442.80200514817, 13727.659133393661, -187500.02235174447, 74821.14581121753, -187500.02235174447, -163779.30060378322, -187500.02235174447, -0.224, 0.964, 0.078, 192.0, 0.0, 0.0, 0.0, 0.0, 0.0, 0.0, 0.0, 0.0, 0.0, 1.7184687401648653E9, 0.0, 2024-06-15 11:25:40.164
168.0, 48340.631823615055, 69965.07286609088, 8508.437396101643, -187500.02235174447, 75302.04359317345, -187500.02235174447, -163539.28757182212, -187500.02235174447, -0.224, 0.964, 0.078, 192.0, 0.0, 0.0, 0.0, 0.0, 0.0, 0.0, 0.0, 0.0, 0.0, 1.718468740164874E9, 0.0, 2024-06-15 11:25:40.164
169.0, 48306.43365459843, 69711.98406362344, 8185.81231663374, -187500.02235174447, 75045.87024997118, -187500.02235174447, -163617.74219486024, -187500.02235174447, -0.224, 0.964, 0.078, 192.0, 0.0, 0.0, 0.0, 0.0, 0.0, 0.0, 0.0, 0.0, 0.0, 1.718468740164883E9, 0.0, 2024-06-15 11:25:40.164
170.0, 47997.040807848076, 69340.7662917097, 13301.277256164225, -187500.02235174447, 74465.88718484488, -187500.02235174447, -163884.8902445901, -187500.02235174447, -0.224, 0.964, 0.078, 192.0, 0.0, 0.0, 0.0, 0.0, 0.0, 0.0, 0.0, 0.0, 0.0, 1.7184687401648915E9, 0.0, 2024-06-15 11:25:40.164
171.0, 47890.46769028517, 69385.8274085316, 14226.415959169384, -187500.02235174447, 74715.69028087739, -187500.02235174447, -163830.3743398636, -187500.02235174447, -0.224, 0.964, 0.078, 192.0, 0.0, 0.0, 0.0, 0.0, 0.0, 0.0, 0.0, 0.0, 0.0, 1.7184687401649003E9, 0.0, 2024-06-15 11:25:40.164
172.0, 48249.10143007057, 69886.48413258602, 9448.037677769385, -187500.02235174447, 75232.79788885092, -187500.02235174447, -163575.27388039517, -187500.02235174447, -0.224, 0.9560000000000001, 0.076, 192.0, 249.0, 0.0, 29.0, 224.0, 2.0, 96.0, 0.0, 0.0, 0.0, 1.718468740164909E9, 0.0, 2024-06-15 11:25:40.164
173.0, 48382.34017876866, 69838.13730932919, 7546.530073467502, -187500.02235174447, 75161.04878914938, -187500.02235174447, -163602.6547673529, -187500.02235174447, -0.224, 0.9560000000000001, 0.076, 192.0, 0.0, 0.0, 0.0, 0.0, 0.0, 0.0, 0.0, 0.0, 0.0, 1.7184687401649177E9, 0.0, 2024-06-15 11:25:40.164
174.0, 48056.85407601048, 69384.12867595299, 12524.174156686564, -187500.02235174447, 74530.52842980962, -187500.02235174447, -163892.9815760829, -187500.02235174447, -0.224, 0.9560000000000001, 0.076, 192.0, 0.0, 0.0, 0.0, 0.0, 0.0, 0.0, 0.0, 0.0, 0.0, 1.7184687401649263E9, 0.0, 2024-06-15 11:25:40.164
175.0, 47868.51827723006, 69326.0141403692, 14508.11499453962, -187500.02235174447, 74624.38340477746, -187500.02235174447, -163890.90286384858, -187500.02235174447, -0.224, 0.9560000000000001, 0.076, 192.0, 0.0, 0.0, 0.0, 0.0, 0.0, 0.0, 0.0, 0.0, 0.0, 1.7184687401649349E9, 0.0, 2024-06-15 11:25:40.164
176.0, 48146.75279220972, 69770.34446839624, 10503.017664315423, -187500.02235174447, 75141.46866100654, -187500.02235174447, -163595.03282249367, -187500.02235174447, -0.224, 0.9560000000000001, 0.076, 192.0, 0.0, 0.0, 0.0, 0.0, 0.0, 0.0, 0.0, 0.0, 0.0, 1.7184687401649437E9, 0.0, 2024-06-15 11:25:40.164
177.0, 48399.75218769934, 69905.95250200659, 7214.830185750746, -187500.02235174447, 75239.2128395096, -187500.02235174447, -163552.4527493063, -187500.02235174447, -0.224, 0.9560000000000001, 0.076, 192.0, 0.0, 0.0, 0.0, 0.0, 0.0, 0.0, 0.0, 0.0, 0.0, 1.7184687401649525E9, 0.0, 2024-06-15 11:25:40.164
178.0, 48066.599436592995, 69393.00231850175, 11714.281048092967, -187500.02235174447, 74572.75087508571, -187500.02235174447, -163794.29862431274, -187500.02235174447, -0.224, 0.9560000000000001, 0.076, 192.0, 0.0, 0.0, 0.0, 0.0, 0.0, 0.0, 0.0, 0.0, 0.0, 1.718468740164961E9, 0.0, 2024-06-15 11:25:40.164
179.0, 47882.37635879235, 69311.97724485127, 14644.415932228081, -187500.02235174447, 74542.8442410045, -187500.02235174447, -163880.79987535477, -187500.02235174447, -0.224, 0.9560000000000001, 0.076, 192.0, 0.0, 0.0, 0.0, 0.0, 0.0, 0.0, 0.0, 0.0, 0.0, 1.71846874016497E9, 0.0, 2024-06-15 11:25:40.164
180.0, 48075.71894833076, 69682.77033362036, 11569.978185889506, -187500.02235174447, 75054.96740996449, -187500.02235174447, -163617.5186774157, -187500.02235174447, -0.224, 0.9560000000000001, 0.076, 192.0, 0.0, 0.0, 0.0, 0.0, 0.0, 0.0, 0.0, 0.0, 0.0, 1.7184687401649785E9, 0.0, 2024-06-15 11:25:40.164
181.0, 48449.39541213458, 70007.74234625607, 7166.930397383023, -187500.02235174447, 75317.80157301445, -187500.02235174447, -163543.9590864133, -187500.02235174447, -0.224, 0.9560000000000001, 0.076, 192.0, 0.0, 0.0, 0.0, 0.0, 0.0, 0.0, 0.0, 0.0, 0.0, 1.718468740164987E9, 0.0, 2024-06-15 11:25:40.164
182.0, 48149.43500154436, 69483.59393877911, 10712.721730795114, -187500.02235174447, 74708.62712962952, -187500.02235174447, -163786.8107899202, -187500.02235174447, -0.228, 0.9520000000000001, 0.078, 192.0, 248.0, 224.0, 29.0, 192.0, 2.0, 112.0, 0.0, 0.0, 0.0, 1.718468740164996E9, 0.0, 2024-06-15 11:25:40.164
183.0, 47932.10899020541, 69344.61079175601, 14483.48337214987, -187500.02235174447, 74518.72670873723, -187500.02235174447, -163964.19423391751, -187500.02235174447, -0.228, 0.9520000000000001, 0.078, 192.0, 0.0, 0.0, 0.0, 0.0, 0.0, 0.0, 0.0, 0.0, 0.0, 1.7184687401650047E9, 0.0, 2024-06-15 11:25:40.165
184.0, 48005.02038061862, 69585.07085860621, 12493.239342360419, -187500.02235174447, 74979.30675498328, -187500.02235174447, -163708.82555351563, -187500.02235174447, -0.228, 0.9520000000000001, 0.078, 192.0, 0.0, 0.0, 0.0, 0.0, 0.0, 0.0, 0.0, 0.0, 0.0, 1.7184687401650136E9, 0.0, 2024-06-15 11:25:40.165
185.0, 48402.501452267345, 69987.24579659055, 7451.088124643341, -187500.02235174447, 75325.73644229608, -187500.02235174447, -163540.82984218953, -187500.02235174447, -0.228, 0.9520000000000001, 0.078, 192.0, 0.0, 0.0, 0.0, 0.0, 0.0, 0.0, 0.0, 0.0, 0.0, 1.7184687401650224E9, 0.0, 2024-06-15 11:25:40.165
186.0, 48222.45815067985, 69572.28566077776, 9729.893175350808, -187500.02235174447, 74840.03303528226, -187500.02235174447, -163752.59026915912, -187500.02235174447, -0.228, 0.9520000000000001, 0.078, 192.0, 0.0, 0.0, 0.0, 0.0, 0.0, 0.0, 0.0, 0.0, 0.0, 1.7184687401650312E9, 0.0, 2024-06-15 11:25:40.165
187.0, 47909.578431794456, 69301.98601507975, 14239.067046531089, -187500.02235174447, 74452.43143468279, -187500.02235174447, -163949.06210292128, -187500.02235174447, -0.228, 0.9520000000000001, 0.078, 192.0, 0.0, 0.0, 0.0, 0.0, 0.0, 0.0, 0.0, 0.0, 0.0, 1.71846874016504E9, 0.0, 2024-06-15 11:25:40.165
188.0, 47909.801949239016, 69468.97589790534, 13354.07207656766, -187500.02235174447, 74846.82796559668, -187500.02235174447, -163729.36680667006, -187500.02235174447, -0.228, 0.9520000000000001, 0.078, 192.0, 0.0, 0.0, 0.0, 0.0, 0.0, 0.0, 0.0, 0.0, 0.0, 1.7184687401650486E9, 0.0, 2024-06-15 11:25:40.165
189.0, 48356.635672645054, 69983.6695174777, 8054.987556336828, -187500.02235174447, 75304.5693402969, -187500.02235174447, -163524.96010362628, -187500.02235174447, -0.228, 0.9520000000000001, 0.078, 192.0, 0.0, 0.0, 0.0, 0.0, 0.0, 0.0, 0.0, 0.0, 0.0, 1.7184687401650572E9, 0.0, 2024-06-15 11:25:40.165
190.0, 48275.45413678338, 69667.66055436857, 8855.984670637212, -187500.02235174447, 74960.82186231874, -187500.02235174447, -163659.15997733595, -187500.02235174447, -0.228, 0.9520000000000001, 0.078, 192.0, 0.0, 0.0, 0.0, 0.0, 0.0, 0.0, 0.0, 0.0, 0.0, 1.7184687401650662E9, 0.0, 2024-06-15 11:25:40.165
191.0, 47971.49276393566, 69335.58068699607, 13789.037023667936, -187500.02235174447, 74461.50624293163, -187500.02235174447, -163933.8852684361, -187500.02235174447, -0.228, 0.9520000000000001, 0.078, 192.0, 0.0, 0.0, 0.0, 0.0, 0.0, 0.0, 0.0, 0.0, 0.0, 1.7184687401650748E9, 0.0, 2024-06-15 11:25:40.165
192.0, 47902.06824565748, 69420.27144673723, 13960.13962747331, -187500.02235174447, 74778.16340662997, -187500.02235174447, -163819.08670891367, -187500.02235174447, -0.23, 0.9540000000000001, 0.082, 192.0, 248.0, 208.0, 29.0, 208.0, 2.0, 144.0, 0.0, 0.0, 0.0, 1.7184687401650836E9, 0.0, 2024-06-15 11:25:40.165
193.0, 48293.29082885871, 69927.38782493923, 8853.70479270277, -187500.02235174447, 75260.24583104203, -187500.02235174447, -163574.22334840577, -187500.02235174447, -0.23, 0.9540000000000001, 0.082, 192.0, 0.0, 0.0, 0.0, 0.0, 0.0, 0.0, 0.0, 0.0, 0.0, 1.7184687401650925E9, 0.0, 2024-06-15 11:25:40.165
194.0, 48333.792189811735, 69764.06362820431, 8051.768905135264, -187500.02235174447, 75075.28514567437, -187500.02235174447, -163657.19302382387, -187500.02235174447, -0.23, 0.9540000000000001, 0.082, 192.0, 0.0, 0.0, 0.0, 0.0, 0.0, 0.0, 0.0, 0.0, 0.0, 1.718468740165101E9, 0.0, 2024-06-15 11:25:40.165
195.0, 47987.69777866576, 69326.75174793623, 13166.138609187437, -187500.02235174447, 74466.37892322289, -187500.02235174447, -163911.13119258062, -187500.02235174447, -0.23, 0.9540000000000001, 0.082, 192.0, 0.0, 0.0, 0.0, 0.0, 0.0, 0.0, 0.0, 0.0, 0.0, 1.7184687401651099E9, 0.0, 2024-06-15 11:25:40.165
196.0, 47849.89927409879, 69330.9091724049, 14434.801272726212, -187500.02235174447, 74663.90128897445, -187500.02235174447, -163834.0176742098, -187500.02235174447, -0.23, 0.9540000000000001, 0.082, 192.0, 0.0, 0.0, 0.0, 0.0, 0.0, 0.0, 0.0, 0.0, 0.0, 1.7184687401651185E9, 0.0, 2024-06-15 11:25:40.165
197.0, 48229.23072924981, 69866.18874862061, 9862.349612992957, -187500.02235174447, 75207.71923157206, -187500.02235174447, -163576.23500540675, -187500.02235174447, -0.23, 0.9540000000000001, 0.082, 192.0, 0.0, 0.0, 0.0, 0.0, 0.0, 0.0, 0.0, 0.0, 0.0, 1.7184687401651273E9, 0.0, 2024-06-15 11:25:40.165
198.0, 48414.41493206203, 69893.90491174518, 7513.20362248464, -187500.02235174447, 75208.23332169454, -187500.02235174447, -163613.9200465584, -187500.02235174447, -0.23, 0.9540000000000001, 0.082, 192.0, 0.0, 0.0, 0.0, 0.0, 0.0, 0.0, 0.0, 0.0, 0.0, 1.718468740165136E9, 0.0, 2024-06-15 11:25:40.165
199.0, 48068.18641044932, 69401.13835348349, 12377.613768293115, -187500.02235174447, 74550.28737190813, -187500.02235174447, -163890.7911051263, -187500.02235174447, -0.23, 0.9540000000000001, 0.082, 192.0, 0.0, 0.0, 0.0, 0.0, 0.0, 0.0, 0.0, 0.0, 0.0, 1.7184687401651447E9, 0.0, 2024-06-15 11:25:40.165
200.0, 47857.27534976904, 69300.73431739025, 14641.979592082453, -187500.02235174447, 74599.93059634336, -187500.02235174447, -163911.37706176963, -187500.02235174447, -0.23, 0.9540000000000001, 0.082, 192.0, 0.0, 0.0, 0.0, 0.0, 0.0, 0.0, 0.0, 0.0, 0.0, 1.7184687401651533E9, 0.0, 2024-06-15 11:25:40.165
201.0, 48101.356399221, 69723.67402597357, 10931.522957268115, -187500.02235174447, 75091.75838133793, -187500.02235174447, -163599.52552312918, -187500.02235174447, -0.23, 0.9540000000000001, 0.082, 192.0, 0.0, 0.0, 0.0, 0.0, 0.0, 0.0, 0.0, 0.0, 0.0, 1.718468740165162E9, 0.0, 2024-06-15 11:25:40.165
202.0, 48421.74630424337, 69944.39750246973, 7297.039901857365, -187500.02235174447, 75259.28470603046, -187500.02235174447, -163549.12233938245, -187500.02235174447, -0.23, 0.9540000000000001, 0.082, 192.0, 0.0, 0.0, 0.0, 0.0, 0.0, 0.0, 0.0, 0.0, 0.0, 1.718468740165171E9, 0.0, 2024-06-15 11:25:40.165
203.0, 48113.31458250459, 69444.56779296015, 11521.787824843863, -187500.02235174447, 74624.45046001083, -187500.02235174447, -163809.02842390878, -187500.02235174447, -0.232, 0.9520000000000001, 0.07, 192.0, 248.0, 192.0, 29.0, 192.0, 2.0, 48.0, 0.0, 0.0, 0.0, 1.7184687401651795E9, 0.0, 2024-06-15 11:25:40.165
204.0, 47893.19460310872, 69319.93446587735, 14702.776337000889, -187500.02235174447, 74536.56340081256, -187500.02235174447, -163918.28375080632, -187500.02235174447, -0.232, 0.9520000000000001, 0.07, 192.0, 0.0, 0.0, 0.0, 0.0, 0.0, 0.0, 0.0, 0.0, 0.0, 1.718468740165188E9, 0.0, 2024-06-15 11:25:40.165
205.0, 48037.07278216753, 69646.20287969147, 11966.2746150821, -187500.02235174447, 75022.26680782638, -187500.02235174447, -163637.50113695874, -187500.02235174447, -0.232, 0.9520000000000001, 0.07, 192.0, 0.0, 0.0, 0.0, 0.0, 0.0, 0.0, 0.0, 0.0, 0.0, 1.718468740165197E9, 0.0, 2024-06-15 11:25:40.165
206.0, 48421.96982168792, 69999.09222115186, 7362.061126477854, -187500.02235174447, 75303.02706992949, -187500.02235174447, -163526.3012082936, -187500.02235174447, -0.232, 0.9520000000000001, 0.07, 192.0, 0.0, 0.0, 0.0, 0.0, 0.0, 0.0, 0.0, 0.0, 0.0, 1.7184687401652057E9, 0.0, 2024-06-15 11:25:40.165
207.0, 48158.21923711529, 69512.5617995932, 10575.794944261903, -187500.02235174447, 74723.20046701438, -187500.02235174447, -163751.897365081, -187500.02235174447, -0.232, 0.9520000000000001, 0.07, 192.0, 0.0, 0.0, 0.0, 0.0, 0.0, 0.0, 0.0, 0.0, 0.0, 1.7184687401652143E9, 0.0, 2024-06-15 11:25:40.165
208.0, 47882.55517274799, 69298.49914294471, 14589.274178656839, -187500.02235174447, 74459.4275306973, -187500.02235174447, -163916.51796299434, -187500.02235174447, -0.232, 0.9520000000000001, 0.07, 192.0, 0.0, 0.0, 0.0, 0.0, 0.0, 0.0, 0.0, 0.0, 0.0, 1.718468740165223E9, 0.0, 2024-06-15 11:25:40.165
209.0, 47982.10984255193, 69574.94551836795, 12885.400698828782, -187500.02235174447, 74930.9822834709, -187500.02235174447, -163703.03645170172, -187500.02235174447, -0.232, 0.9520000000000001, 0.07, 192.0, 0.0, 0.0, 0.0, 0.0, 0.0, 0.0, 0.0, 0.0, 0.0, 1.7184687401652317E9, 0.0, 2024-06-15 11:25:40.165
210.0, 48409.65401049305, 70028.70828255515, 7727.914479722319, -187500.02235174447, 75331.52554411002, -187500.02235174447, -163533.4537665193, -187500.02235174447, -0.232, 0.9520000000000001, 0.07, 192.0, 0.0, 0.0, 0.0, 0.0, 0.0, 0.0, 0.0, 0.0, 0.0, 1.7184687401652403E9, 0.0, 2024-06-15 11:25:40.165
211.0, 48244.094639312585, 69623.29234162478, 9601.504755199523, -187500.02235174447, 74868.59856469615, -187500.02235174447, -163709.92078899394, -187500.02235174447, -0.232, 0.9520000000000001, 0.07, 192.0, 0.0, 0.0, 0.0, 0.0, 0.0, 0.0, 0.0, 0.0, 0.0, 1.718468740165249E9, 0.0, 2024-06-15 11:25:40.165
212.0, 47928.2644901591, 69325.54475373564, 14247.448950701828, -187500.02235174447, 74447.24582996915, -187500.02235174447, -163931.20305910148, -187500.02235174447, -0.232, 0.9520000000000001, 0.07, 192.0, 0.0, 0.0, 0.0, 0.0, 0.0, 0.0, 0.0, 0.0, 0.0, 1.718468740165258E9, 0.0, 2024-06-15 11:25:40.165
213.0, 47928.35389713692, 69490.81355223818, 13651.484388289975, -187500.02235174447, 74836.00972128031, -187500.02235174447, -163766.09072281013, -187500.02235174447, -0.23, 0.9480000000000001, 0.078, 192.0, 248.0, 208.0, 29.0, 160.0, 2.0, 112.0, 0.0, 0.0, 0.0, 1.7184687401652665E9, 0.0, 2024-06-15 11:25:40.165
214.0, 48356.34509996714, 70001.5732647864, 8374.639853792174, -187500.02235174447, 75300.63543327278, -187500.02235174447, -163557.23602261973, -187500.02235174447, -0.23, 0.9480000000000001, 0.078, 192.0, 0.0, 0.0, 0.0, 0.0, 0.0, 0.0, 0.0, 0.0, 0.0, 1.7184687401652753E9, 0.0, 2024-06-15 11:25:40.165
215.0, 48273.42012803795, 69688.02299356736, 8729.339686553441, -187500.02235174447, 74972.69063862451, -187500.02235174447, -163660.0316953697, -187500.02235174447, -0.23, 0.9480000000000001, 0.078, 192.0, 0.0, 0.0, 0.0, 0.0, 0.0, 0.0, 0.0, 0.0, 0.0, 1.718468740165284E9, 0.0, 2024-06-15 11:25:40.165
216.0, 47955.39950792784, 69328.18225958136, 13764.450104767098, -187500.02235174447, 74438.8192223095, -187500.02235174447, -163912.89698039257, -187500.02235174447, -0.23, 0.9480000000000001, 0.078, 192.0, 0.0, 0.0, 0.0, 0.0, 0.0, 0.0, 0.0, 0.0, 0.0, 1.7184687401652927E9, 0.0, 2024-06-15 11:25:40.165
217.0, 47869.099422585896, 69397.96440577084, 14261.709363664313, -187500.02235174447, 74728.83310661711, -187500.02235174447, -163804.7592407178, -187500.02235174447, -0.23, 0.9480000000000001, 0.078, 192.0, 0.0, 0.0, 0.0, 0.0, 0.0, 0.0, 0.0, 0.0, 0.0, 1.7184687401653016E9, 0.0, 2024-06-15 11:25:40.165
218.0, 48287.993465422805, 69946.52091819298, 9261.892349945587, -187500.02235174447, 75250.67928441516, -187500.02235174447, -163573.03870594964, -187500.02235174447, -0.23, 0.9480000000000001, 0.078, 192.0, 0.0, 0.0, 0.0, 0.0, 0.0, 0.0, 0.0, 0.0, 0.0, 1.7184687401653104E9, 0.0, 2024-06-15 11:25:40.165
219.0, 48378.741547911355, 69838.33847502929, 7981.763241501241, -187500.02235174447, 75129.71164342304, -187500.02235174447, -163652.11917783253, -187500.02235174447, -0.23, 0.9480000000000001, 0.078, 192.0, 0.0, 0.0, 0.0, 0.0, 0.0, 0.0, 0.0, 0.0, 0.0, 1.7184687401653197E9, 0.0, 2024-06-15 11:25:40.165
220.0, 48022.41003780485, 69377.02082121621, 13046.176796695805, -187500.02235174447, 74492.12813283541, -187500.02235174447, -163931.85125969068, -187500.02235174447, -0.23, 0.9480000000000001, 0.078, 192.0, 0.0, 0.0, 0.0, 0.0, 0.0, 0.0, 0.0, 0.0, 0.0, 1.7184687401653285E9, 0.0, 2024-06-15 11:25:40.165
221.0, 47856.35892824637, 69350.13167263647, 14594.12450720364, -187500.02235174447, 74645.19287886535, -187500.02235174447, -163901.00585234235, -187500.02235174447, -0.23, 0.9480000000000001, 0.078, 192.0, 0.0, 0.0, 0.0, 0.0, 0.0, 0.0, 0.0, 0.0, 0.0, 1.7184687401653376E9, 0.0, 2024-06-15 11:25:40.165
222.0, 48189.73519679728, 69846.11688209974, 10256.254405528833, -187500.02235174447, 75164.98269617352, -187500.02235174447, -163614.5235436587, -187500.02235174447, -0.23, 0.9480000000000001, 0.078, 192.0, 0.0, 0.0, 0.0, 0.0, 0.0, 0.0, 0.0, 0.0, 0.0, 1.7184687401653469E9, 0.0, 2024-06-15 11:25:40.165
223.0, 48395.48300450838, 69905.17019095067, 7503.659427602223, -187500.02235174447, 75207.80863854989, -187500.02235174447, -163625.09591878604, -187500.02235174447, -0.23, 0.9540000000000001, 0.082, 192.0, 248.0, 208.0, 29.0, 208.0, 2.0, 144.0, 0.0, 0.0, 0.0, 1.718468740165356E9, 0.0, 2024-06-15 11:25:40.165
224.0, 48034.368221088436, 69384.01691723072, 12253.47217958834, -187500.02235174447, 74527.15331639687, -187500.02235174447, -163869.8698723161, -187500.02235174447, -0.23, 0.9540000000000001, 0.082, 192.0, 0.0, 0.0, 0.0, 0.0, 0.0, 0.0, 0.0, 0.0, 0.0, 1.7184687401653647E9, 0.0, 2024-06-15 11:25:40.165
225.0, 47855.397803234795, 69326.17060258039, 14788.07059384234, -187500.02235174447, 74555.2941626661, -187500.02235174447, -163921.41299503006, -187500.02235174447, -0.23, 0.9540000000000001, 0.082, 192.0, 0.0, 0.0, 0.0, 0.0, 0.0, 0.0, 0.0, 0.0, 0.0, 1.7184687401653736E9, 0.0, 2024-06-15 11:25:40.165
226.0, 48106.094969045516, 69752.32896236527, 11318.364598556114, -187500.02235174447, 75075.91099451912, -187500.02235174447, -163637.16586079192, -187500.02235174447, -0.23, 0.9540000000000001, 0.082, 192.0, 0.0, 0.0, 0.0, 0.0, 0.0, 0.0, 0.0, 0.0, 0.0, 1.7184687401653829E9, 0.0, 2024-06-15 11:25:40.165
227.0, 48451.854104024664, 70015.2748841375, 7317.648210245158, -187500.02235174447, 75292.65586050223, -187500.02235174447, -163600.0619649961, -187500.02235174447, -0.23, 0.9540000000000001, 0.082, 192.0, 0.0, 0.0, 0.0, 0.0, 0.0, 0.0, 0.0, 0.0, 0.0, 1.7184687401653917E9, 0.0, 2024-06-15 11:25:40.165
228.0, 48117.76257965119, 69480.57645327765, 11309.71447345191, -187500.02235174447, 74648.88091670048, -187500.02235174447, -163841.72902604687, -187500.02235174447, -0.23, 0.9540000000000001, 0.082, 192.0, 0.0, 0.0, 0.0, 0.0, 0.0, 0.0, 0.0, 0.0, 0.0, 1.7184687401654015E9, 0.0, 2024-06-15 11:25:40.165
229.0, 47881.99637913661, 69336.362998052, 14759.885044084198, -187500.02235174447, 74499.30304280556, -187500.02235174447, -163952.45956807848, -187500.02235174447, -0.23, 0.9540000000000001, 0.082, 192.0, 0.0, 0.0, 0.0, 0.0, 0.0, 0.0, 0.0, 0.0, 0.0, 1.7184687401654108E9, 0.0, 2024-06-15 11:25:40.165
230.0, 48021.80654070456, 69650.44971113798, 12308.301008737208, -187500.02235174447, 74984.98409807493, -187500.02235174447, -163693.60401554155, -187500.02235174447, -0.23, 0.9540000000000001, 0.082, 192.0, 0.0, 0.0, 0.0, 0.0, 0.0, 0.0, 0.0, 0.0, 0.0, 1.7184687401654236E9, 0.0, 2024-06-15 11:25:40.165
231.0, 48411.06217039373, 70020.34873012886, 7478.178438923173, -187500.02235174447, 75303.2729391185, -187500.02235174447, -163560.09704591002, -187500.02235174447, -0.23, 0.9540000000000001, 0.082, 192.0, 0.0, 0.0, 0.0, 0.0, 0.0, 0.0, 0.0, 0.0, 0.0, 1.7184687401654325E9, 0.0, 2024-06-15 11:25:40.165
232.0, 48181.465051348816, 69558.47228270439, 10344.923775783036, -187500.02235174447, 74763.5453657562, -187500.02235174447, -163774.27146128076, -187500.02235174447, -0.23, 0.9540000000000001, 0.082, 192.0, 0.0, 0.0, 0.0, 0.0, 0.0, 0.0, 0.0, 0.0, 0.0, 1.7184687401654415E9, 0.0, 2024-06-15 11:25:40.165
233.0, 47930.79023728255, 69357.93243145138, 14544.905965913054, -187500.02235174447, 74484.03680134259, -187500.02235174447, -163981.76270505937, -187500.02235174447, -0.224, 0.9560000000000001, 0.08600000000000001, 192.0, 249.0, 0.0, 29.0, 224.0, 2.0, 176.0, 0.0, 0.0, 0.0, 1.7184687401654508E9, 0.0, 2024-06-15 11:25:40.165
234.0, 47946.10118223443, 69543.49661391934, 13190.054975754616, -187500.02235174447, 74898.54990226626, -187500.02235174447, -163750.8021296027, -187500.02235174447, -0.224, 0.9560000000000001, 0.08600000000000001, 192.0, 0.0, 0.0, 0.0, 0.0, 0.0, 0.0, 0.0, 0.0, 0.0, 1.71846874016546E9, 0.0, 2024-06-15 11:25:40.165
235.0, 48390.833841661675, 70031.2340296786, 7928.655496675432, -187500.02235174447, 75318.69564279266, -187500.02235174447, -163573.10576118302, -187500.02235174447, -0.224, 0.9560000000000001, 0.08600000000000001, 192.0, 0.0, 0.0, 0.0, 0.0, 0.0, 0.0, 0.0, 0.0, 0.0, 1.718468740165469E9, 0.0, 2024-06-15 11:25:40.165
236.0, 48274.2471425828, 69673.91904281605, 9355.881435380154, -187500.02235174447, 74917.48182981991, -187500.02235174447, -163753.64080114852, -187500.02235174447, -0.224, 0.9560000000000001, 0.08600000000000001, 192.0, 0.0, 0.0, 0.0, 0.0, 0.0, 0.0, 0.0, 0.0, 0.0, 1.7184687401654792E9, 0.0, 2024-06-15 11:25:40.165
237.0, 47938.43453388626, 69340.25220158722, 14153.884548411912, -187500.02235174447, 74445.30122820154, -187500.02235174447, -163989.71992608547, -187500.02235174447, -0.224, 0.9560000000000001, 0.08600000000000001, 192.0, 0.0, 0.0, 0.0, 0.0, 0.0, 0.0, 0.0, 0.0, 0.0, 1.7184687401654887E9, 0.0, 2024-06-15 11:25:40.165
238.0, 47902.67174275777, 69470.83109269514, 13879.159257311734, -187500.02235174447, 74800.7610202743, -187500.02235174447, -163829.99436020784, -187500.02235174447, -0.224, 0.9560000000000001, 0.08600000000000001, 192.0, 0.0, 0.0, 0.0, 0.0, 0.0, 0.0, 0.0, 0.0, 0.0, 1.7184687401654985E9, 0.0, 2024-06-15 11:25:40.165
239.0, 48336.25088170182, 70004.00960493203, 8638.412790109252, -187500.02235174447, 75285.34684006535, -187500.02235174447, -163599.48081964027, -187500.02235174447, -0.224, 0.9560000000000001, 0.08600000000000001, 192.0, 0.0, 0.0, 0.0, 0.0, 0.0, 0.0, 0.0, 0.0, 0.0, 1.7184687401655076E9, 0.0, 2024-06-15 11:25:40.165
240.0, 48309.07116044416, 69751.1666716536, 8518.585088084352, -187500.02235174447, 75015.78480193434, -187500.02235174447, -163692.77700099672, -187500.02235174447, -0.224, 0.9560000000000001, 0.08600000000000001, 192.0, 0.0, 0.0, 0.0, 0.0, 0.0, 0.0, 0.0, 0.0, 0.0, 1.7184687401655173E9, 0.0, 2024-06-15 11:25:40.165
241.0, 47982.08749080748, 69366.69431527785, 13609.731329647462, -187500.02235174447, 74440.04856825454, -187500.02235174447, -163956.7958065028, -187500.02235174447, -0.224, 0.9560000000000001, 0.08600000000000001, 192.0, 0.0, 0.0, 0.0, 0.0, 0.0, 0.0, 0.0, 0.0, 0.0, 1.7184687406436715E9, 0.0, 2024-06-15 11:25:40.643
242.0, 47865.21021905068, 69398.34438542658, 14425.033560399243, -187500.02235174447, 74686.8788822745, -187500.02235174447, -163862.35968617914, -187500.02235174447, -0.224, 0.9560000000000001, 0.08600000000000001, 192.0, 0.0, 0.0, 0.0, 0.0, 0.0, 0.0, 0.0, 0.0, 0.0, 1.7184687406437118E9, 0.0, 2024-06-15 11:25:40.643
243.0, 48251.96245336085, 69921.17403998066, 9589.188944004649, -187500.02235174447, 75207.0486792384, -187500.02235174447, -163597.02212775018, -187500.02235174447, -0.224, 0.9560000000000001, 0.08600000000000001, 192.0, 0.0, 0.0, 0.0, 0.0, 0.0, 0.0, 0.0, 0.0, 0.0, 1.7184687406437373E9, 0.0, 2024-06-15 11:25:40.643
244.0, 48383.12248982459, 69866.61343176526, 7861.466152842779, -187500.02235174447, 75146.5425069979, -187500.02235174447, -163659.0705703581, -187500.02235174447, -0.224, 0.96, 0.088, 192.0, 249.0, 0.0, 30.0, 0.0, 2.0, 192.0, 0.0, 0.0, 0.0, 1.7184687406437604E9, 0.0, 2024-06-15 11:25:40.643
245.0, 48008.909584153844, 69375.65736480443, 12899.683463535723, -187500.02235174447, 74488.46244674474, -187500.02235174447, -163921.27888456333, -187500.02235174447, -0.224, 0.96, 0.088, 192.0, 0.0, 0.0, 0.0, 0.0, 0.0, 0.0, 0.0, 0.0, 0.0, 1.718468740643788E9, 0.0, 2024-06-15 11:25:40.643
246.0, 47831.906119812265, 69331.5126695052, 14766.724677887521, -187500.02235174447, 74600.93642484385, -187500.02235174447, -163890.5899394262, -187500.02235174447, -0.224, 0.96, 0.088, 192.0, 0.0, 0.0, 0.0, 0.0, 0.0, 0.0, 0.0, 0.0, 0.0, 1.7184687406438265E9, 0.0, 2024-06-15 11:25:40.643
247.0, 48137.14154209394, 69802.39686994515, 10650.740343420548, -187500.02235174447, 75121.88853286368, -187500.02235174447, -163599.1678952179, -187500.02235174447, -0.224, 0.96, 0.088, 192.0, 0.0, 0.0, 0.0, 0.0, 0.0, 0.0, 0.0, 0.0, 0.0, 1.7184687406438415E9, 0.0, 2024-06-15 11:25:40.643
248.0, 48413.967897172915, 69953.38290374076, 7495.9033722762315, -187500.02235174447, 75228.10402251531, -187500.02235174447, -163599.7713923182, -187500.02235174447, -0.224, 0.96, 0.088, 192.0, 0.0, 0.0, 0.0, 0.0, 0.0, 0.0, 0.0, 0.0, 0.0, 1.7184687406438558E9, 0.0, 2024-06-15 11:25:40.643
249.0, 48083.922038545854, 69457.10712159958, 12055.882758603426, -187500.02235174447, 74583.54676765761, -187500.02235174447, -163876.64245088608, -187500.02235174447, -0.224, 0.96, 0.088, 192.0, 0.0, 0.0, 0.0, 0.0, 0.0, 0.0, 0.0, 0.0, 0.0, 1.7184687406438663E9, 0.0, 2024-06-15 11:25:40.643
250.0, 47871.35694877589, 69356.63603027297, 14870.928510538162, -187500.02235174447, 74552.88017426494, -187500.02235174447, -163951.0067046889, -187500.02235174447, -0.224, 0.96, 0.088, 192.0, 0.0, 0.0, 0.0, 0.0, 0.0, 0.0, 0.0, 0.0, 0.0, 1.718468740643876E9, 0.0, 2024-06-15 11:25:40.643
251.0, 48071.74033781771, 69725.10453761871, 11681.602797699308, -187500.02235174447, 75051.59229655174, -187500.02235174447, -163669.3300210631, -187500.02235174447, -0.224, 0.96, 0.088, 192.0, 0.0, 0.0, 0.0, 0.0, 0.0, 0.0, 0.0, 0.0, 0.0, 1.7184687406438854E9, 0.0, 2024-06-15 11:25:40.643
252.0, 48420.96399318743, 70007.85410497834, 7393.554734415381, -187500.02235174447, 75294.93573843667, -187500.02235174447, -163606.05223251012, -187500.02235174447, -0.224, 0.96, 0.088, 192.0, 0.0, 0.0, 0.0, 0.0, 0.0, 0.0, 0.0, 0.0, 0.0, 1.7184687406438944E9, 0.0, 2024-06-15 11:25:40.643
253.0, 48126.12213207747, 69503.48699134434, 11092.835497002066, -187500.02235174447, 74680.75450429374, -187500.02235174447, -163848.47925287238, -187500.02235174447, -0.224, 0.96, 0.088, 192.0, 0.0, 0.0, 0.0, 0.0, 0.0, 0.0, 0.0, 0.0, 0.0, 1.7184687406439035E9, 0.0, 2024-06-15 11:25:40.643
254.0, 47862.43860273822, 69320.5603147221, 14790.797506665887, -187500.02235174447, 74476.9289466058, -187500.02235174447, -163991.64217610864, -187500.02235174447, -0.23, 0.9540000000000001, 0.088, 192.0, 248.0, 208.0, 29.0, 208.0, 2.0, 192.0, 0.0, 0.0, 0.0, 1.7184687406439128E9, 0.0, 2024-06-15 11:25:40.643
255.0, 47980.43346171778, 69612.09411765267, 12654.50717860546, -187500.02235174447, 74951.41177790306, -187500.02235174447, -163732.67486484945, -187500.02235174447, -0.23, 0.9540000000000001, 0.088, 192.0, 0.0, 0.0, 0.0, 0.0, 0.0, 0.0, 0.0, 0.0, 0.0, 1.7184687406439223E9, 0.0, 2024-06-15 11:25:40.643
0.0, 48403.082597623186, 70032.75394830156, 7646.062391526984, -187500.02235174447, 75311.58778805588, -187500.02235174447, -163593.9152352709, -187500.02235174447, -0.23, 0.9540000000000001, 0.088, 192.0, 0.0, 0.0, 0.0, 0.0, 0.0, 0.0, 0.0, 0.0, 0.0, 1.718468740643932E9, 0.0, 2024-06-15 11:25:40.643
1.0, 48167.42815583088, 69563.9708118404, 10140.897052394994, -187500.02235174447, 74780.73385724233, -187500.02235174447, -163781.82635090666, -187500.02235174447, -0.23, 0.9540000000000001, 0.088, 192.0, 0.0, 0.0, 0.0, 0.0, 0.0, 0.0, 0.0, 0.0, 0.0, 1.7184687406439412E9, 0.0, 2024-06-15 11:25:40.643
2.0, 47867.66891094076, 69299.32615748956, 14574.544379060791, -187500.02235174447, 74413.1594196748, -187500.02235174447, -163977.02413523485, -187500.02235174447, -0.23, 0.9540000000000001, 0.088, 192.0, 0.0, 0.0, 0.0, 0.0, 0.0, 0.0, 0.0, 0.0, 0.0, 1.7184687406439505E9, 0.0, 2024-06-15 11:25:40.643
3.0, 47901.66591425728, 69505.4539448564, 13527.25339260738, -187500.02235174447, 74839.69775911543, -187500.02235174447, -163766.62716467705, -187500.02235174447, -0.23, 0.9540000000000001, 0.088, 192.0, 0.0, 0.0, 0.0, 0.0, 0.0, 0.0, 0.0, 0.0, 0.0, 1.7184687406439595E9, 0.0, 2024-06-15 11:25:40.643
4.0, 48362.64829190353, 70028.64122732177, 8202.710235441951, -187500.02235174447, 75304.81520948593, -187500.02235174447, -163588.88609276846, -187500.02235174447, -0.23, 0.9540000000000001, 0.088, 192.0, 0.0, 0.0, 0.0, 0.0, 0.0, 0.0, 0.0, 0.0, 0.0, 1.7184687406439724E9, 0.0, 2024-06-15 11:25:40.643
5.0, 48235.69038339739, 69663.74899908889, 9205.856526596133, -187500.02235174447, 74921.39338509958, -187500.02235174447, -163736.07233000666, -187500.02235174447, -0.23, 0.9540000000000001, 0.088, 192.0, 0.0, 0.0, 0.0, 0.0, 0.0, 0.0, 0.0, 0.0, 0.0, 1.7184687406439826E9, 0.0, 2024-06-15 11:25:40.643
6.0, 47938.36747865289, 69349.43876855836, 14126.168385287332, -187500.02235174447, 74432.65014083983, -187500.02235174447, -163997.05129826683, -187500.02235174447, -0.23, 0.9540000000000001, 0.088, 192.0, 0.0, 0.0, 0.0, 0.0, 0.0, 0.0, 0.0, 0.0, 0.0, 1.718468740643992E9, 0.0, 2024-06-15 11:25:40.643
7.0, 47869.747623175106, 69441.25973478076, 14162.199397349286, -187500.02235174447, 74761.80192968869, -187500.02235174447, -163863.0749420017, -187500.02235174447, -0.23, 0.9540000000000001, 0.088, 192.0, 0.0, 0.0, 0.0, 0.0, 0.0, 0.0, 0.0, 0.0, 0.0, 1.7184687406440015E9, 0.0, 2024-06-15 11:25:40.644
8.0, 48308.28884938823, 69994.66657574971, 8976.460573251316, -187500.02235174447, 75258.14476706323, -187500.02235174447, -163632.04731131165, -187500.02235174447, -0.23, 0.9460000000000001, 0.08, 192.0, 248.0, 208.0, 29.0, 144.0, 2.0, 128.0, 0.0, 0.0, 0.0, 1.7184687406440108E9, 0.0, 2024-06-15 11:25:40.644
9.0, 48322.14693095052, 69788.06940174931, 8367.330833355289, -187500.02235174447, 75045.82554648227, -187500.02235174447, -163733.27836194975, -187500.02235174447, -0.23, 0.9460000000000001, 0.08, 192.0, 0.0, 0.0, 0.0, 0.0, 0.0, 0.0, 0.0, 0.0, 0.0, 1.7184687406440196E9, 0.0, 2024-06-15 11:25:40.644
10.0, 47964.451964432235, 69354.55731803863, 13495.178639314014, -187500.02235174447, 74428.02332973758, -187500.02235174447, -164003.82387683677, -187500.02235174447, -0.23, 0.9460000000000001, 0.08, 192.0, 0.0, 0.0, 0.0, 0.0, 0.0, 0.0, 0.0, 0.0, 0.0, 1.718468740644029E9, 0.0, 2024-06-15 11:25:40.644
11.0, 47810.60490734636, 69346.33187607907, 14644.259470016894, -187500.02235174447, 74625.63510246696, -187500.02235174447, -163905.81147740025, -187500.02235174447, -0.23, 0.9460000000000001, 0.08, 192.0, 0.0, 0.0, 0.0, 0.0, 0.0, 0.0, 0.0, 0.0, 0.0, 1.718468740644038E9, 0.0, 2024-06-15 11:25:40.644
12.0, 48204.64381034897, 69884.58423430732, 9973.638948635931, -187500.02235174447, 75168.38016133073, -187500.02235174447, -163632.44964271184, -187500.02235174447, -0.23, 0.9460000000000001, 0.08, 192.0, 0.0, 0.0, 0.0, 0.0, 0.0, 0.0, 0.0, 0.0, 0.0, 1.7184687406440475E9, 0.0, 2024-06-15 11:25:40.644
13.0, 48360.74839362483, 69871.12848414523, 7809.364236517458, -187500.02235174447, 75143.41326277415, -187500.02235174447, -163670.0229251412, -187500.02235174447, -0.23, 0.9460000000000001, 0.08, 192.0, 0.0, 0.0, 0.0, 0.0, 0.0, 0.0, 0.0, 0.0, 0.0, 1.7184687406440568E9, 0.0, 2024-06-15 11:25:40.644
14.0, 48017.939688913786, 69398.34438542658, 12760.365040345794, -187500.02235174447, 74488.2836327891, -187500.02235174447, -163946.22343137546, -187500.02235174447, -0.23, 0.9460000000000001, 0.08, 192.0, 0.0, 0.0, 0.0, 0.0, 0.0, 0.0, 0.0, 0.0, 0.0, 1.718468740644066E9, 0.0, 2024-06-15 11:25:40.644
15.0, 47862.48330622713, 69369.06360019011, 14877.343461196837, -187500.02235174447, 74598.16480853138, -187500.02235174447, -163982.81323704877, -187500.02235174447, -0.23, 0.9460000000000001, 0.08, 192.0, 0.0, 0.0, 0.0, 0.0, 0.0, 0.0, 0.0, 0.0, 0.0, 1.718468740644075E9, 0.0, 2024-06-15 11:25:40.644
16.0, 48104.53034693365, 69780.76038131242, 11014.023246052653, -187500.02235174447, 75105.0800210333, -187500.02235174447, -163679.50006479028, -187500.02235174447, -0.23, 0.9460000000000001, 0.08, 192.0, 0.0, 0.0, 0.0, 0.0, 0.0, 0.0, 0.0, 0.0, 0.0, 1.7184687406440847E9, 0.0, 2024-06-15 11:25:40.644
17.0, 48400.22157433291, 69967.08452309186, 7497.244476943551, -187500.02235174447, 75248.57822043636, -187500.02235174447, -163642.55263120565, -187500.02235174447, -0.23, 0.9460000000000001, 0.08, 192.0, 0.0, 0.0, 0.0, 0.0, 0.0, 0.0, 0.0, 0.0, 0.0, 1.718468740644094E9, 0.0, 2024-06-15 11:25:40.644
18.0, 48075.38367216393, 69459.85638616758, 11875.280663404545, -187500.02235174447, 74597.98599457575, -187500.02235174447, -163897.56368369624, -187500.02235174447, -0.23, 0.9560000000000001, 0.084, 192.0, 248.0, 208.0, 29.0, 224.0, 2.0, 160.0, 0.0, 0.0, 0.0, 1.7184687406441033E9, 0.0, 2024-06-15 11:25:40.644
19.0, 47841.51736992805, 69322.37080602298, 14971.82428500942, -187500.02235174447, 74502.99108064068, -187500.02235174447, -163983.12616147115, -187500.02235174447, -0.23, 0.9560000000000001, 0.084, 192.0, 0.0, 0.0, 0.0, 0.0, 0.0, 0.0, 0.0, 0.0, 0.0, 1.7184687406441123E9, 0.0, 2024-06-15 11:25:40.644
