%OpenBCI Raw EXG Data
%Number of channels = 8
%Sample Rate = 250 Hz
%Board = OpenBCI_GUI$BoardCytonSerial
Sample Index, EXG Channel 0, EXG Channel 1, EXG Channel 2, EXG Channel 3, EXG Channel 4, EXG Channel 5, EXG Channel 6, EXG Channel 7, Accel Channel 0, Accel Channel 1, Accel Channel 2, Other, Other, Other, Other, Other, Other, Other, Analog Channel 0, Analog Channel 1, Analog Channel 2, Timestamp, Other, Timestamp (Formatted)
153.0, 49711.486662803494, 68814.15919234266, -5473.137554304309, -187500.02235174447, 71889.468656715, -187500.02235174447, -187500.02235174447, -187500.02235174447, 0.0, 0.0, 0.0, 192.0, 0.0, 0.0, 0.0, 0.0, 0.0, 0.0, 0.0, 0.0, 0.0, 1.7184690035150366E9, 0.0, 2024-06-15 11:30:03.515
154.0, 50131.364182396435, 69210.63443549091, -8733.407704044308, -187500.02235174447, 72184.39992480278, -187500.02235174447, -187500.02235174447, -187500.02235174447, 0.0, 0.0, 0.0, 192.0, 0.0, 0.0, 0.0, 0.0, 0.0, 0.0, 0.0, 0.0, 0.0, 1.7184690035150595E9, 0.0, 2024-06-15 11:30:03.515
155.0, 49821.323135056875, 68960.94309818067, -8513.801814770915, -187500.02235174447, 72433.75598594618, -187500.02235174447, -187500.02235174447, -187500.02235174447, 0.0, 0.0, 0.0, 192.0, 0.0, 0.0, 0.0, 0.0, 0.0, 0.0, 0.0, 0.0, 0.0, 1.7184690035150726E9, 0.0, 2024-06-15 11:30:03.515
156.0, 49346.19210317041, 68503.00055778034, -5255.252749353976, -187500.02235174447, 72187.4397620487, -187500.02235174447, -187500.02235174447, -187500.02235174447, 0.0, 0.0, 0.0, 192.0, 0.0, 0.0, 0.0, 0.0, 0.0, 0.0, 0.0, 0.0, 0.0, 1.7184690035150852E9, 0.0, 2024-06-15 11:30:03.515
157.0, 49601.96311497249, 68710.98353993696, -5089.715729917972, -187500.02235174447, 71885.75826713542, -187500.02235174447, -187500.02235174447, -187500.02235174447, 0.0, 0.0, 0.0, 192.0, 0.0, 0.0, 0.0, 0.0, 0.0, 0.0, 0.0, 0.0, 0.0, 1.7184690035150976E9, 0.0, 2024-06-15 11:30:03.515
158.0, 50059.212751294705, 69137.67834158878, -8258.969576235959, -187500.02235174447, 72081.38073460826, -187500.02235174447, -187500.02235174447, -187500.02235174447, -0.35000000000000003, 0.924, 0.066, 192.0, 245.0, 16.0, 28.0, 224.0, 2.0, 16.0, 0.0, 0.0, 0.0, 1.7184690035151098E9, 0.0, 2024-06-15 11:30:03.515
159.0, 49898.97309529461, 69032.62514264883, -8886.673615774347, -187500.02235174447, 72404.40814547637, -187500.02235174447, -187500.02235174447, -187500.02235174447, -0.35000000000000003, 0.924, 0.066, 192.0, 0.0, 0.0, 0.0, 0.0, 0.0, 0.0, 0.0, 0.0, 0.0, 1.7184690035151424E9, 0.0, 2024-06-15 11:30:03.515
160.0, 49397.86933635108, 68567.46298878944, -5764.224322345773, -187500.02235174447, 72267.30254498751, -187500.02235174447, -187500.02235174447, -187500.02235174447, -0.35000000000000003, 0.924, 0.066, 192.0, 0.0, 0.0, 0.0, 0.0, 0.0, 0.0, 0.0, 0.0, 0.0, 1.7184690035151534E9, 0.0, 2024-06-15 11:30:03.515
161.0, 49517.51822442034, 68650.27620199636, -4845.5452734881965, -187500.02235174447, 71935.24502935947, -187500.02235174447, -187500.02235174447, -187500.02235174447, -0.35000000000000003, 0.924, 0.066, 192.0, 0.0, 0.0, 0.0, 0.0, 0.0, 0.0, 0.0, 0.0, 0.0, 1.718469003515164E9, 0.0, 2024-06-15 11:30:03.515
162.0, 49996.06907320846, 69097.24403586912, -7745.147674697361, -187500.02235174447, 72033.05626309589, -187500.02235174447, -187500.02235174447, -187500.02235174447, -0.35000000000000003, 0.924, 0.066, 192.0, 0.0, 0.0, 0.0, 0.0, 0.0, 0.0, 0.0, 0.0, 0.0, 1.718469003515174E9, 0.0, 2024-06-15 11:30:03.515
163.0, 49937.283985291004, 69064.23050930865, -9105.340731780618, -187500.02235174447, 72360.3305054105, -187500.02235174447, -187500.02235174447, -187500.02235174447, -0.35000000000000003, 0.924, 0.066, 192.0, 0.0, 0.0, 0.0, 0.0, 0.0, 0.0, 0.0, 0.0, 0.0, 1.718469003515184E9, 0.0, 2024-06-15 11:30:03.515
164.0, 49440.96349966091, 68595.49207633639, -6278.895590173673, -187500.02235174447, 72306.35104255093, -187500.02235174447, -187500.02235174447, -187500.02235174447, -0.35000000000000003, 0.924, 0.066, 192.0, 0.0, 0.0, 0.0, 0.0, 0.0, 0.0, 0.0, 0.0, 0.0, 1.7184690035151944E9, 0.0, 2024-06-15 11:30:03.515
165.0, 49424.669077952996, 68541.64672394356, -4666.776021334651, -187500.02235174447, 71965.66575356314, -187500.02235174447, -187500.02235174447, -187500.02235174447, -0.35000000000000003, 0.924, 0.066, 192.0, 0.0, 0.0, 0.0, 0.0, 0.0, 0.0, 0.0, 0.0, 0.0, 1.7184690035152051E9, 0.0, 2024-06-15 11:30:03.515
166.0, 49918.575575181916, 68977.95277571115, -7146.7020686509695, -187500.02235174447, 71988.57629162983, -187500.02235174447, -187500.02235174447, -187500.02235174447, -0.35000000000000003, 0.924, 0.066, 192.0, 0.0, 0.0, 0.0, 0.0, 0.0, 0.0, 0.0, 0.0, 0.0, 1.7184690035152152E9, 0.0, 2024-06-15 11:30:03.515
167.0, 49986.50252658159, 69064.31991628646, -9238.266556056327, -187500.02235174447, 72348.9758192272, -187500.02235174447, -187500.02235174447, -187500.02235174447, -0.35000000000000003, 0.924, 0.066, 192.0, 0.0, 0.0, 0.0, 0.0, 0.0, 0.0, 0.0, 0.0, 0.0, 1.718469003515226E9, 0.0, 2024-06-15 11:30:03.515
168.0, 49465.483363328385, 68603.91868399605, -6875.5754084080945, -187500.02235174447, 72328.56867653951, -187500.02235174447, -187500.02235174447, -187500.02235174447, -0.35000000000000003, 0.924, 0.066, 192.0, 0.0, 0.0, 0.0, 0.0, 0.0, 0.0, 0.0, 0.0, 0.0, 1.7184690035152364E9, 0.0, 2024-06-15 11:30:03.515
169.0, 49327.37193433904, 68426.75875744328, -4662.842114310517, -187500.02235174447, 72008.22347500605, -187500.02235174447, -187500.02235174447, -187500.02235174447, -0.402, 0.918, 0.066, 192.0, 243.0, 112.0, 28.0, 176.0, 2.0, 16.0, 0.0, 0.0, 0.0, 1.7184690035152469E9, 0.0, 2024-06-15 11:30:03.515
170.0, 49784.50981193898, 68815.29913130989, -6563.343890111911, -187500.02235174447, 71954.1322534242, -187500.02235174447, -187500.02235174447, -187500.02235174447, -0.402, 0.918, 0.066, 192.0, 0.0, 0.0, 0.0, 0.0, 0.0, 0.0, 0.0, 0.0, 0.0, 1.7184690035152576E9, 0.0, 2024-06-15 11:30:03.515
171.0, 49965.49188679361, 69017.89534305279, -9156.079191694163, -187500.02235174447, 72295.89042614585, -187500.02235174447, -187500.02235174447, -187500.02235174447, -0.402, 0.918, 0.066, 192.0, 0.0, 0.0, 0.0, 0.0, 0.0, 0.0, 0.0, 0.0, 0.0, 1.718469003515273E9, 0.0, 2024-06-15 11:30:03.515
172.0, 49539.71350666446, 68650.94675433001, -7447.444790297126, -187500.02235174447, 72386.70556386776, -187500.02235174447, -187500.02235174447, -187500.02235174447, -0.402, 0.918, 0.066, 192.0, 0.0, 0.0, 0.0, 0.0, 0.0, 0.0, 0.0, 0.0, 0.0, 1.718469003515293E9, 0.0, 2024-06-15 11:30:03.515
173.0, 49283.383701251, 68354.62967808601, -4790.358816428044, -187500.02235174447, 72093.87535975878, -187500.02235174447, -187500.02235174447, -187500.02235174447, -0.402, 0.918, 0.066, 192.0, 0.0, 0.0, 0.0, 0.0, 0.0, 0.0, 0.0, 0.0, 0.0, 1.7184690035153124E9, 0.0, 2024-06-15 11:30:03.515
174.0, 49686.34095029128, 68690.73285946046, -6056.629843310099, -187500.02235174447, 71945.10214866426, -187500.02235174447, -187500.02235174447, -187500.02235174447, -0.402, 0.918, 0.066, 192.0, 0.0, 0.0, 0.0, 0.0, 0.0, 0.0, 0.0, 0.0, 0.0, 1.7184690035153272E9, 0.0, 2024-06-15 11:30:03.515
175.0, 49960.03806114651, 68932.06464434441, -9024.203899407852, -187500.02235174447, 72256.43959718224, -187500.02235174447, -187500.02235174447, -187500.02235174447, -0.402, 0.918, 0.066, 192.0, 0.0, 0.0, 0.0, 0.0, 0.0, 0.0, 0.0, 0.0, 0.0, 1.718469003515355E9, 0.0, 2024-06-15 11:30:03.515
176.0, 49568.21198084498, 68608.03140497583, -7989.653407293965, -187500.02235174447, 72382.90576731035, -187500.02235174447, -187500.02235174447, -187500.02235174447, -0.402, 0.918, 0.066, 192.0, 0.0, 0.0, 0.0, 0.0, 0.0, 0.0, 0.0, 0.0, 0.0, 1.718469003515382E9, 0.0, 2024-06-15 11:30:03.515
177.0, 49229.02425873569, 68267.83785436605, -4982.516763510319, -187500.02235174447, 72120.16101123822, -187500.02235174447, -187500.02235174447, -187500.02235174447, -0.402, 0.918, 0.066, 192.0, 0.0, 0.0, 0.0, 0.0, 0.0, 0.0, 0.0, 0.0, 0.0, 1.718469003515392E9, 0.0, 2024-06-15 11:30:03.515
178.0, 49556.7455359394, 68526.89457260307, -5552.19567444273, -187500.02235174447, 71924.4267850431, -187500.02235174447, -187500.02235174447, -187500.02235174447, -0.402, 0.918, 0.066, 192.0, 0.0, 0.0, 0.0, 0.0, 0.0, 0.0, 0.0, 0.0, 0.0, 1.7184690035154018E9, 0.0, 2024-06-15 11:30:03.515
179.0, 49910.39483671127, 68873.86070178279, -8672.074517258945, -187500.02235174447, 72187.28329983751, -187500.02235174447, -187500.02235174447, -187500.02235174447, -0.448, 0.896, 0.048, 192.0, 242.0, 0.0, 28.0, 0.0, 1.0, 128.0, 0.0, 0.0, 0.0, 1.7184690035154116E9, 0.0, 2024-06-15 11:30:03.515
180.0, 49654.40030746464, 68655.79708287682, -8482.308206833388, -187500.02235174447, 72396.83090410601, -187500.02235174447, -187500.02235174447, -187500.02235174447, -0.448, 0.896, 0.048, 192.0, 0.0, 0.0, 0.0, 0.0, 0.0, 0.0, 0.0, 0.0, 0.0, 1.7184690035154235E9, 0.0, 2024-06-15 11:30:03.515
181.0, 49241.11655248601, 68237.68535109585, -5350.649994689226, -187500.02235174447, 72203.66712852324, -187500.02235174447, -187500.02235174447, -187500.02235174447, -0.448, 0.896, 0.048, 192.0, 0.0, 0.0, 0.0, 0.0, 0.0, 0.0, 0.0, 0.0, 0.0, 1.718469003515436E9, 0.0, 2024-06-15 11:30:03.515
182.0, 49462.28706387128, 68419.69560619541, -5164.527018609884, -187500.02235174447, 71926.93018042209, -187500.02235174447, -187500.02235174447, -187500.02235174447, -0.448, 0.896, 0.048, 192.0, 0.0, 0.0, 0.0, 0.0, 0.0, 0.0, 0.0, 0.0, 0.0, 1.718469003515452E9, 0.0, 2024-06-15 11:30:03.515
183.0, 49878.16362120672, 68802.37982301472, -8272.358271164689, -187500.02235174447, 72119.93749379367, -187500.02235174447, -187500.02235174447, -187500.02235174447, -0.448, 0.896, 0.048, 192.0, 0.0, 0.0, 0.0, 0.0, 0.0, 0.0, 0.0, 0.0, 0.0, 1.7184690035154629E9, 0.0, 2024-06-15 11:30:03.515
184.0, 49714.37003783823, 68642.27427748135, -8898.877668246945, -187500.02235174447, 72393.07581103752, -187500.02235174447, -187500.02235174447, -187500.02235174447, -0.448, 0.896, 0.048, 192.0, 0.0, 0.0, 0.0, 0.0, 0.0, 0.0, 0.0, 0.0, 0.0, 1.7184690035154727E9, 0.0, 2024-06-15 11:30:03.515
185.0, 49245.676308354894, 68210.84090600502, -5778.2612178637055, -187500.02235174447, 72240.63691385233, -187500.02235174447, -187500.02235174447, -187500.02235174447, -0.448, 0.896, 0.048, 192.0, 0.0, 0.0, 0.0, 0.0, 0.0, 0.0, 0.0, 0.0, 0.0, 1.718469003515483E9, 0.0, 2024-06-15 11:30:03.515
186.0, 49354.84222827462, 68303.04185188316, -4866.5559132761855, -187500.02235174447, 71936.16145088214, -187500.02235174447, -187500.02235174447, -187500.02235174447, -0.448, 0.896, 0.048, 192.0, 0.0, 0.0, 0.0, 0.0, 0.0, 0.0, 0.0, 0.0, 0.0, 1.718469003515493E9, 0.0, 2024-06-15 11:30:03.515
187.0, 49799.5525359574, 68713.0175486824, -7763.207884217249, -187500.02235174447, 72053.84338543932, -187500.02235174447, -187500.02235174447, -187500.02235174447, -0.448, 0.896, 0.048, 192.0, 0.0, 0.0, 0.0, 0.0, 0.0, 0.0, 0.0, 0.0, 0.0, 1.718469003515504E9, 0.0, 2024-06-15 11:30:03.515
188.0, 49761.71103259457, 68702.40047006613, -9188.444517665448, -187500.02235174447, 72373.80860731704, -187500.02235174447, -187500.02235174447, -187500.02235174447, -0.448, 0.896, 0.048, 192.0, 0.0, 0.0, 0.0, 0.0, 0.0, 0.0, 0.0, 0.0, 0.0, 1.7184690035155146E9, 0.0, 2024-06-15 11:30:03.515
189.0, 49293.33022753361, 68256.59492690503, -6291.121994390726, -187500.02235174447, 72287.35205976391, -187500.02235174447, -187500.02235174447, -187500.02235174447, -0.462, 0.88, 0.016, 192.0, 241.0, 144.0, 27.0, 128.0, 0.0, 128.0, 0.0, 0.0, 0.0, 1.718469003515525E9, 0.0, 2024-06-15 11:30:03.515
190.0, 49290.44685249888, 68198.12276340995, -4647.240596680713, -187500.02235174447, 71973.37710540023, -187500.02235174447, -187500.02235174447, -187500.02235174447, -0.462, 0.88, 0.016, 192.0, 0.0, 0.0, 0.0, 0.0, 0.0, 0.0, 0.0, 0.0, 0.0, 1.7184690035155354E9, 0.0, 2024-06-15 11:30:03.515
191.0, 49740.47687536203, 68603.76222178485, -7198.714577998469, -187500.02235174447, 71985.31293693936, -187500.02235174447, -187500.02235174447, -187500.02235174447, -0.462, 0.88, 0.016, 192.0, 0.0, 0.0, 0.0, 0.0, 0.0, 0.0, 0.0, 0.0, 0.0, 1.718469003515546E9, 0.0, 2024-06-15 11:30:03.515
192.0, 49797.16089930069, 68660.11096955668, -9404.496479570447, -187500.02235174447, 72324.67947300429, -187500.02235174447, -187500.02235174447, -187500.02235174447, -0.462, 0.88, 0.016, 192.0, 0.0, 0.0, 0.0, 0.0, 0.0, 0.0, 0.0, 0.0, 0.0, 1.7184690035155563E9, 0.0, 2024-06-15 11:30:03.515
193.0, 49346.95206248189, 68277.96319460431, -6832.458893353808, -187500.02235174447, 72342.06913019052, -187500.02235174447, -187500.02235174447, -187500.02235174447, -0.462, 0.88, 0.016, 192.0, 0.0, 0.0, 0.0, 0.0, 0.0, 0.0, 0.0, 0.0, 0.0, 1.718469003515566E9, 0.0, 2024-06-15 11:30:03.515
194.0, 49224.55390984463, 68159.16367282435, -4443.884425626329, -187500.02235174447, 72016.13599254322, -187500.02235174447, -187500.02235174447, -187500.02235174447, -0.462, 0.88, 0.016, 192.0, 0.0, 0.0, 0.0, 0.0, 0.0, 0.0, 0.0, 0.0, 0.0, 1.718469003515576E9, 0.0, 2024-06-15 11:30:03.515
195.0, 49663.29630175785, 68551.54854673726, -6515.645267444285, -187500.02235174447, 71933.79216596988, -187500.02235174447, -187500.02235174447, -187500.02235174447, -0.462, 0.88, 0.016, 192.0, 0.0, 0.0, 0.0, 0.0, 0.0, 0.0, 0.0, 0.0, 0.0, 1.7184690035156069E9, 0.0, 2024-06-15 11:30:03.515
196.0, 49856.8177052519, 68731.56949658031, -9473.809239126354, -187500.02235174447, 72283.48520797315, -187500.02235174447, -187500.02235174447, -187500.02235174447, -0.462, 0.88, 0.016, 192.0, 0.0, 0.0, 0.0, 0.0, 0.0, 0.0, 0.0, 0.0, 0.0, 1.7184690035156207E9, 0.0, 2024-06-15 11:30:03.515
197.0, 49465.41630809502, 68364.62090785753, -7622.838929037921, -187500.02235174447, 72398.48493319571, -187500.02235174447, -187500.02235174447, -187500.02235174447, -0.462, 0.88, 0.016, 192.0, 0.0, 0.0, 0.0, 0.0, 0.0, 0.0, 0.0, 0.0, 0.0, 1.7184690035156307E9, 0.0, 2024-06-15 11:30:03.515
198.0, 49197.28478160915, 68106.324148932, -4644.960718746272, -187500.02235174447, 72070.5624902919, -187500.02235174447, -187500.02235174447, -187500.02235174447, -0.462, 0.88, 0.016, 192.0, 0.0, 0.0, 0.0, 0.0, 0.0, 0.0, 0.0, 0.0, 0.0, 1.7184690035156567E9, 0.0, 2024-06-15 11:30:03.515
199.0, 49562.13230635313, 68460.77811250427, -5962.707813108899, -187500.02235174447, 71888.48517995897, -187500.02235174447, -187500.02235174447, -187500.02235174447, -0.436, 0.88, -0.014, 192.0, 242.0, 96.0, 27.0, 128.0, 255.0, 144.0, 0.0, 0.0, 0.0, 1.7184690035156872E9, 0.0, 2024-06-15 11:30:03.515
200.0, 49864.21613266661, 68771.48971217748, -9308.182812712528, -187500.02235174447, 72202.84011397841, -187500.02235174447, -187500.02235174447, -187500.02235174447, -0.436, 0.88, -0.014, 192.0, 0.0, 0.0, 0.0, 0.0, 0.0, 0.0, 0.0, 0.0, 0.0, 1.7184690035156977E9, 0.0, 2024-06-15 11:30:03.515
201.0, 49541.9933845989, 68477.00547897881, -8304.813004113794, -187500.02235174447, 72384.51509291114, -187500.02235174447, -187500.02235174447, -187500.02235174447, -0.436, 0.88, -0.014, 192.0, 0.0, 0.0, 0.0, 0.0, 0.0, 0.0, 0.0, 0.0, 0.0, 1.7184690035157232E9, 0.0, 2024-06-15 11:30:03.515
202.0, 49186.198316359325, 68079.83733175247, -4958.2427690318555, -187500.02235174447, 72102.57018835189, -187500.02235174447, -187500.02235174447, -187500.02235174447, -0.436, 0.88, -0.014, 192.0, 0.0, 0.0, 0.0, 0.0, 0.0, 0.0, 0.0, 0.0, 0.0, 1.7184690035157547E9, 0.0, 2024-06-15 11:30:03.515
203.0, 49470.06547094172, 68348.17002393842, -5484.536943976515, -187500.02235174447, 71876.32583097529, -187500.02235174447, -187500.02235174447, -187500.02235174447, -0.436, 0.88, -0.014, 192.0, 0.0, 0.0, 0.0, 0.0, 0.0, 0.0, 0.0, 0.0, 0.0, 1.7184690035157657E9, 0.0, 2024-06-15 11:30:03.515
204.0, 49826.24051883704, 68682.84269366774, -8860.924406161834, -187500.02235174447, 72138.75766262504, -187500.02235174447, -187500.02235174447, -187500.02235174447, -0.436, 0.88, -0.014, 192.0, 0.0, 0.0, 0.0, 0.0, 0.0, 0.0, 0.0, 0.0, 0.0, 1.7184690035157766E9, 0.0, 2024-06-15 11:30:03.515
205.0, 49627.24293795144, 68488.71779307339, -8747.086971650955, -187500.02235174447, 72356.35189489745, -187500.02235174447, -187500.02235174447, -187500.02235174447, -0.436, 0.88, -0.014, 192.0, 0.0, 0.0, 0.0, 0.0, 0.0, 0.0, 0.0, 0.0, 0.0, 1.7184690035158033E9, 0.0, 2024-06-15 11:30:03.515
206.0, 49245.45279091034, 68147.42900698532, -5454.049164539477, -187500.02235174447, 72155.6332296888, -187500.02235174447, -187500.02235174447, -187500.02235174447, -0.436, 0.88, -0.014, 192.0, 0.0, 0.0, 0.0, 0.0, 0.0, 0.0, 0.0, 0.0, 0.0, 1.7184690035158153E9, 0.0, 2024-06-15 11:30:03.515
207.0, 49424.78083667527, 68288.62497670949, -5228.162435074143, -187500.02235174447, 71902.27620628789, -187500.02235174447, -187500.02235174447, -187500.02235174447, -0.436, 0.88, -0.014, 192.0, 0.0, 0.0, 0.0, 0.0, 0.0, 0.0, 0.0, 0.0, 0.0, 1.7184690035158265E9, 0.0, 2024-06-15 11:30:03.515
208.0, 49766.583712885826, 68622.67179759406, -8332.93149863857, -187500.02235174447, 72089.60617656782, -187500.02235174447, -187500.02235174447, -187500.02235174447, -0.436, 0.88, -0.014, 192.0, 0.0, 0.0, 0.0, 0.0, 0.0, 0.0, 0.0, 0.0, 0.0, 1.7184690035158374E9, 0.0, 2024-06-15 11:30:03.515
209.0, 49647.82889459478, 68544.5748024672, -9064.615853383048, -187500.02235174447, 72313.32478682099, -187500.02235174447, -187500.02235174447, -187500.02235174447, -0.436, 0.88, -0.014, 192.0, 0.0, 0.0, 0.0, 0.0, 0.0, 0.0, 0.0, 0.0, 0.0, 1.718469003515849E9, 0.0, 2024-06-15 11:30:03.515
210.0, 49276.20879128084, 68193.56300754106, -6013.602735233633, -187500.02235174447, 72153.64392443227, -187500.02235174447, -187500.02235174447, -187500.02235174447, -0.402, 0.898, -0.042, 192.0, 243.0, 112.0, 28.0, 16.0, 254.0, 176.0, 0.0, 0.0, 0.0, 1.71846900351586E9, 0.0, 2024-06-15 11:30:03.515
211.0, 49374.98115002885, 68259.97004031778, -5032.316450156743, -187500.02235174447, 71923.64447398717, -187500.02235174447, -187500.02235174447, -187500.02235174447, -0.402, 0.898, -0.042, 192.0, 0.0, 0.0, 0.0, 0.0, 0.0, 0.0, 0.0, 0.0, 0.0, 1.7184690035158708E9, 0.0, 2024-06-15 11:30:03.515
212.0, 49743.092029463296, 68559.86339567463, -7823.758759946676, -187500.02235174447, 72059.2078041086, -187500.02235174447, -187500.02235174447, -187500.02235174447, -0.402, 0.898, -0.042, 192.0, 0.0, 0.0, 0.0, 0.0, 0.0, 0.0, 0.0, 0.0, 0.0, 1.7184690035158825E9, 0.0, 2024-06-15 11:30:03.515
213.0, 49714.92883144961, 68516.25514224233, -9358.384830759149, -187500.02235174447, 72320.3208828355, -187500.02235174447, -187500.02235174447, -187500.02235174447, -0.402, 0.898, -0.042, 192.0, 0.0, 0.0, 0.0, 0.0, 0.0, 0.0, 0.0, 0.0, 0.0, 1.7184690035158923E9, 0.0, 2024-06-15 11:30:03.515
214.0, 49345.722716536846, 68212.4502316058, -6635.651783424829, -187500.02235174447, 72185.62927074781, -187500.02235174447, -187500.02235174447, -187500.02235174447, -0.402, 0.898, -0.042, 192.0, 0.0, 0.0, 0.0, 0.0, 0.0, 0.0, 0.0, 0.0, 0.0, 1.7184690035159025E9, 0.0, 2024-06-15 11:30:03.515
215.0, 49341.16296066796, 68198.03335643213, -4977.755841941338, -187500.02235174447, 71942.66580851864, -187500.02235174447, -187500.02235174447, -187500.02235174447, -0.402, 0.898, -0.042, 192.0, 0.0, 0.0, 0.0, 0.0, 0.0, 0.0, 0.0, 0.0, 0.0, 1.7184690035159278E9, 0.0, 2024-06-15 11:30:03.515
216.0, 49697.717988219025, 68509.99665379485, -7309.601582241247, -187500.02235174447, 72001.2944342249, -187500.02235174447, -187500.02235174447, -187500.02235174447, -0.402, 0.898, -0.042, 192.0, 0.0, 0.0, 0.0, 0.0, 0.0, 0.0, 0.0, 0.0, 0.0, 1.7184690035159578E9, 0.0, 2024-06-15 11:30:03.515
217.0, 49761.37575642774, 68624.3481784282, -9497.278570804427, -187500.02235174447, 72275.14800729133, -187500.02235174447, -187500.02235174447, -187500.02235174447, -0.402, 0.898, -0.042, 192.0, 0.0, 0.0, 0.0, 0.0, 0.0, 0.0, 0.0, 0.0, 0.0, 1.7184690035159695E9, 0.0, 2024-06-15 11:30:03.515
218.0, 49452.25113061084, 68354.78614029719, -7309.892154919166, -187500.02235174447, 72211.51259082706, -187500.02235174447, -187500.02235174447, -187500.02235174447, -0.402, 0.898, -0.042, 192.0, 0.0, 0.0, 0.0, 0.0, 0.0, 0.0, 0.0, 0.0, 0.0, 1.7184690035159798E9, 0.0, 2024-06-15 11:30:03.515
219.0, 49345.365088625564, 68202.16842915636, -5077.109346045178, -187500.02235174447, 71979.68029733661, -187500.02235174447, -187500.02235174447, -187500.02235174447, -0.402, 0.898, -0.042, 192.0, 0.0, 0.0, 0.0, 0.0, 0.0, 0.0, 0.0, 0.0, 0.0, 1.71846900351601E9, 0.0, 2024-06-15 11:30:03.516
220.0, 49640.89985381364, 68433.46428077988, -6824.076989183068, -187500.02235174447, 71976.70751532406, -187500.02235174447, -187500.02235174447, -187500.02235174447, -0.334, 0.92, -0.066, 192.0, 245.0, 144.0, 28.0, 192.0, 253.0, 240.0, 0.0, 0.0, 0.0, 1.7184690035160363E9, 0.0, 2024-06-15 11:30:03.516
221.0, 49790.92476259766, 68601.25882640587, -9517.819823958853, -187500.02235174447, 72257.06544602697, -187500.02235174447, -187500.02235174447, -187500.02235174447, -0.334, 0.92, -0.066, 192.0, 0.0, 0.0, 0.0, 0.0, 0.0, 0.0, 0.0, 0.0, 0.0, 1.7184690035160873E9, 0.0, 2024-06-15 11:30:03.516
222.0, 49545.323794522745, 68410.5984462021, -7958.204502845348, -187500.02235174447, 72223.71664329966, -187500.02235174447, -187500.02235174447, -187500.02235174447, -0.334, 0.92, -0.066, 192.0, 0.0, 0.0, 0.0, 0.0, 0.0, 0.0, 0.0, 0.0, 0.0, 1.7184690035161185E9, 0.0, 2024-06-15 11:30:03.516
223.0, 49342.302899635186, 68240.12169124147, -5244.099228870778, -187500.02235174447, 71988.75510558547, -187500.02235174447, -187500.02235174447, -187500.02235174447, -0.334, 0.92, -0.066, 192.0, 0.0, 0.0, 0.0, 0.0, 0.0, 0.0, 0.0, 0.0, 0.0, 1.7184690035161452E9, 0.0, 2024-06-15 11:30:03.516
224.0, 49604.01947546238, 68414.44294624841, -6334.305564678379, -187500.02235174447, 71948.27609637691, -187500.02235174447, -187500.02235174447, -187500.02235174447, -0.334, 0.92, -0.066, 192.0, 0.0, 0.0, 0.0, 0.0, 0.0, 0.0, 0.0, 0.0, 0.0, 1.718469003516155E9, 0.0, 2024-06-15 11:30:03.516
225.0, 49805.922783127164, 68624.59404761721, -9356.999022602919, -187500.02235174447, 72209.23271289263, -187500.02235174447, -187500.02235174447, -187500.02235174447, -0.334, 0.92, -0.066, 192.0, 0.0, 0.0, 0.0, 0.0, 0.0, 0.0, 0.0, 0.0, 0.0, 1.7184690035161653E9, 0.0, 2024-06-15 11:30:03.516
226.0, 49611.35084764372, 68441.84618495061, -8590.93768488618, -187500.02235174447, 72240.59221036342, -187500.02235174447, -187500.02235174447, -187500.02235174447, -0.334, 0.92, -0.066, 192.0, 0.0, 0.0, 0.0, 0.0, 0.0, 0.0, 0.0, 0.0, 0.0, 1.718469003516175E9, 0.0, 2024-06-15 11:30:03.516
227.0, 49370.28728369323, 68186.92453943784, -5575.709709609712, -187500.02235174447, 72028.42945199364, -187500.02235174447, -187500.02235174447, -187500.02235174447, -0.334, 0.92, -0.066, 192.0, 0.0, 0.0, 0.0, 0.0, 0.0, 0.0, 0.0, 0.0, 0.0, 1.7184690035161848E9, 0.0, 2024-06-15 11:30:03.516
228.0, 49547.42485850154, 68356.90955602044, -5929.359010381581, -187500.02235174447, 71921.90103791966, -187500.02235174447, -187500.02235174447, -187500.02235174447, -0.334, 0.92, -0.066, 192.0, 0.0, 0.0, 0.0, 0.0, 0.0, 0.0, 0.0, 0.0, 0.0, 1.718469003516215E9, 0.0, 2024-06-15 11:30:03.516
229.0, 49788.48842245203, 68577.8341982167, -9092.868458374556, -187500.02235174447, 72159.79065415748, -187500.02235174447, -187500.02235174447, -187500.02235174447, -0.334, 0.92, -0.066, 192.0, 0.0, 0.0, 0.0, 0.0, 0.0, 0.0, 0.0, 0.0, 0.0, 1.7184690035162256E9, 0.0, 2024-06-15 11:30:03.516
230.0, 49638.55292064583, 68481.67699356997, -9077.646920400492, -187500.02235174447, 72283.32874576196, -187500.02235174447, -187500.02235174447, -187500.02235174447, -0.272, 0.9420000000000001, -0.076, 192.0, 247.0, 128.0, 29.0, 112.0, 253.0, 160.0, 0.0, 0.0, 0.0, 1.718469003516236E9, 0.0, 2024-06-15 11:30:03.516
231.0, 49329.27183261774, 68188.95854818328, -5637.959317917743, -187500.02235174447, 72070.8083594809, -187500.02235174447, -187500.02235174447, -187500.02235174447, -0.272, 0.9420000000000001, -0.076, 192.0, 0.0, 0.0, 0.0, 0.0, 0.0, 0.0, 0.0, 0.0, 0.0, 1.7184690035162623E9, 0.0, 2024-06-15 11:30:03.516
232.0, 49490.07028222922, 68317.10109914556, -5193.584286401783, -187500.02235174447, 71864.63586862515, -187500.02235174447, -187500.02235174447, -187500.02235174447, -0.272, 0.9420000000000001, -0.076, 192.0, 0.0, 0.0, 0.0, 0.0, 0.0, 0.0, 0.0, 0.0, 0.0, 1.718469003516272E9, 0.0, 2024-06-15 11:30:03.516
233.0, 49853.91197847271, 68637.78157684584, -8648.538130347506, -187500.02235174447, 72042.64516146723, -187500.02235174447, -187500.02235174447, -187500.02235174447, -0.272, 0.9420000000000001, -0.076, 192.0, 0.0, 0.0, 0.0, 0.0, 0.0, 0.0, 0.0, 0.0, 0.0, 1.7184690035162814E9, 0.0, 2024-06-15 11:30:03.516
234.0, 49769.578846642835, 68560.26572707483, -9828.777292821085, -187500.02235174447, 72287.75439116411, -187500.02235174447, -187500.02235174447, -187500.02235174447, -0.272, 0.9420000000000001, -0.076, 192.0, 0.0, 0.0, 0.0, 0.0, 0.0, 0.0, 0.0, 0.0, 0.0, 1.718469003516291E9, 0.0, 2024-06-15 11:30:03.516
235.0, 49370.04141450422, 68210.25976064918, -6384.97696935856, -187500.02235174447, 72147.65365691825, -187500.02235174447, -187500.02235174447, -187500.02235174447, -0.272, 0.9420000000000001, -0.076, 192.0, 0.0, 0.0, 0.0, 0.0, 0.0, 0.0, 0.0, 0.0, 0.0, 1.7184690035163007E9, 0.0, 2024-06-15 11:30:03.516
236.0, 49419.550528472726, 68256.88549958295, -4973.285493050277, -187500.02235174447, 71887.59111018076, -187500.02235174447, -187500.02235174447, -187500.02235174447, -0.272, 0.9420000000000001, -0.076, 192.0, 0.0, 0.0, 0.0, 0.0, 0.0, 0.0, 0.0, 0.0, 0.0, 1.718469003516312E9, 0.0, 2024-06-15 11:30:03.516
237.0, 49809.05202735091, 68615.2510184349, -7988.781689260208, -187500.02235174447, 71982.5413206269, -187500.02235174447, -187500.02235174447, -187500.02235174447, -0.272, 0.9420000000000001, -0.076, 192.0, 0.0, 0.0, 0.0, 0.0, 0.0, 0.0, 0.0, 0.0, 0.0, 1.7184690035163224E9, 0.0, 2024-06-15 11:30:03.516
238.0, 49861.10924018732, 68691.44811528303, -10017.35896079051, -187500.02235174447, 72265.13442577535, -187500.02235174447, -187500.02235174447, -187500.02235174447, -0.272, 0.9420000000000001, -0.076, 192.0, 0.0, 0.0, 0.0, 0.0, 0.0, 0.0, 0.0, 0.0, 0.0, 1.7184690035163324E9, 0.0, 2024-06-15 11:30:03.516
239.0, 49471.98772096488, 68259.16537751739, -6979.443964891907, -187500.02235174447, 72201.85663722237, -187500.02235174447, -187500.02235174447, -187500.02235174447, -0.272, 0.9420000000000001, -0.076, 192.0, 0.0, 0.0, 0.0, 0.0, 0.0, 0.0, 0.0, 0.0, 0.0, 1.7184690035163443E9, 0.0, 2024-06-15 11:30:03.516
240.0, 49403.479624209365, 68188.60092027199, -4785.821412303617, -187500.02235174447, 71927.48897403348, -187500.02235174447, -187500.02235174447, -187500.02235174447, -0.226, 0.96, -0.058, 192.0, 248.0, 240.0, 30.0, 0.0, 254.0, 48.0, 0.0, 0.0, 0.0, 1.7184690035163543E9, 0.0, 2024-06-15 11:30:03.516
241.0, 49765.108497751775, 68521.55250567824, -7194.579505274237, -187500.02235174447, 71938.21781137203, -187500.02235174447, -187500.02235174447, -187500.02235174447, -0.226, 0.96, -0.058, 192.0, 0.0, 0.0, 0.0, 0.0, 0.0, 0.0, 0.0, 0.0, 0.0, 1.7184690035163648E9, 0.0, 2024-06-15 11:30:03.516
242.0, 49889.71947309011, 68669.43164699455, -9897.821831443529, -187500.02235174447, 72231.20447769218, -187500.02235174447, -187500.02235174447, -187500.02235174447, -0.226, 0.96, -0.058, 192.0, 0.0, 0.0, 0.0, 0.0, 0.0, 0.0, 0.0, 0.0, 0.0, 1.718469003516375E9, 0.0, 2024-06-15 11:30:03.516
243.0, 49537.03129732982, 68356.12724496452, -7449.52350253147, -187500.02235174447, 72225.77300378955, -187500.02235174447, -187500.02235174447, -187500.02235174447, -0.226, 0.96, -0.058, 192.0, 0.0, 0.0, 0.0, 0.0, 0.0, 0.0, 0.0, 0.0, 0.0, 1.7184690035163844E9, 0.0, 2024-06-15 11:30:03.516
244.0, 49365.861638291084, 68199.10624016599, -4598.111462367948, -187500.02235174447, 71948.79018649939, -187500.02235174447, -187500.02235174447, -187500.02235174447, -0.226, 0.96, -0.058, 192.0, 0.0, 0.0, 0.0, 0.0, 0.0, 0.0, 0.0, 0.0, 0.0, 1.7184690035164096E9, 0.0, 2024-06-15 11:30:03.516
245.0, 49694.0299503839, 68446.83062396415, -6319.531061593421, -187500.02235174447, 71907.21594181251, -187500.02235174447, -187500.02235174447, -187500.02235174447, -0.226, 0.96, -0.058, 192.0, 0.0, 0.0, 0.0, 0.0, 0.0, 0.0, 0.0, 0.0, 0.0, 1.7184690035164187E9, 0.0, 2024-06-15 11:30:03.516
246.0, 49888.02074051151, 68655.66297241008, -9485.655663687667, -187500.02235174447, 72190.16667487225, -187500.02235174447, -187500.02235174447, -187500.02235174447, -0.226, 0.96, -0.058, 192.0, 0.0, 0.0, 0.0, 0.0, 0.0, 0.0, 0.0, 0.0, 0.0, 1.718469003516428E9, 0.0, 2024-06-15 11:30:03.516
247.0, 49601.58313531675, 68396.58390242863, -7855.878216728952, -187500.02235174447, 72252.63980062483, -187500.02235174447, -187500.02235174447, -187500.02235174447, -0.226, 0.96, -0.058, 192.0, 0.0, 0.0, 0.0, 0.0, 0.0, 0.0, 0.0, 0.0, 0.0, 1.7184690035164375E9, 0.0, 2024-06-15 11:30:03.516
248.0, 49365.28049293524, 68172.0382776306, -4554.1008775354485, -187500.02235174447, 71994.09717251029, -187500.02235174447, -187500.02235174447, -187500.02235174447, -0.226, 0.96, -0.058, 192.0, 0.0, 0.0, 0.0, 0.0, 0.0, 0.0, 0.0, 0.0, 0.0, 1.7184690035164468E9, 0.0, 2024-06-15 11:30:03.516
249.0, 49661.39640347915, 68439.23103084935, -5496.495127260105, -187500.02235174447, 71895.81655214031, -187500.02235174447, -187500.02235174447, -187500.02235174447, -0.226, 0.96, -0.058, 192.0, 0.0, 0.0, 0.0, 0.0, 0.0, 0.0, 0.0, 0.0, 0.0, 1.718469003516456E9, 0.0, 2024-06-15 11:30:03.516
250.0, 49932.187787555195, 68684.27320531287, -8977.242884307252, -187500.02235174447, 72152.59339244287, -187500.02235174447, -187500.02235174447, -187500.02235174447, -0.226, 0.96, -0.058, 192.0, 0.0, 0.0, 0.0, 0.0, 0.0, 0.0, 0.0, 0.0, 0.0, 1.7184690035164654E9, 0.0, 2024-06-15 11:30:03.516
251.0, 49706.77044472342, 68482.90633951502, -8344.174426099591, -187500.02235174447, 72289.45312374271, -187500.02235174447, -187500.02235174447, -187500.02235174447, -0.184, 0.988, -0.04, 192.0, 250.0, 64.0, 30.0, 224.0, 254.0, 192.0, 0.0, 0.0, 0.0, 1.7184690035164747E9, 0.0, 2024-06-15 11:30:03.516
252.0, 49398.718702640384, 68216.92058049687, -4800.5735636441195, -187500.02235174447, 72060.32539133137, -187500.02235174447, -187500.02235174447, -187500.02235174447, -0.184, 0.988, -0.04, 192.0, 0.0, 0.0, 0.0, 0.0, 0.0, 0.0, 0.0, 0.0, 0.0, 1.718469003516484E9, 0.0, 2024-06-15 11:30:03.516
0.0, 0.0, 0.0, 0.0, 0.0, 0.0, 0.0, 0.0, 0.0, -0.184, 0.988, -0.04, 192.0, 0.0, 0.0, 0.0, 0.0, 0.0, 0.0, 0.0, 0.0, 0.0, 1.7184690036029012E9, 0.0, 2024-06-15 11:30:03.602
1.0, 49208.32654337008, 68857.52157658596, -16347.440045766836, -187500.02235174447, 72518.49144917625, -187500.02235174447, -187500.02235174447, -187500.02235174447, -0.214, 0.97, 0.02, 192.0, 249.0, 80.0, 30.0, 80.0, 0.0, 160.0, 0.0, 0.0, 0.0, 1.7184690040854397E9, 0.0, 2024-06-15 11:30:04.085
2.0, 49213.35568587252, 68871.82669303736, -15125.067844995005, -187500.02235174447, 72363.2362321897, -187500.02235174447, -187500.02235174447, -187500.02235174447, -0.214, 0.97, 0.02, 192.0, 0.0, 0.0, 0.0, 0.0, 0.0, 0.0, 0.0, 0.0, 0.0, 1.71846900408546E9, 0.0, 2024-06-15 11:30:04.085
3.0, 49327.75191399478, 68994.00132823006, -16309.442080192815, -187500.02235174447, 72359.0341042321, -187500.02235174447, -187500.02235174447, -187500.02235174447, -0.214, 0.97, 0.02, 192.0, 0.0, 0.0, 0.0, 0.0, 0.0, 0.0, 0.0, 0.0, 0.0, 1.7184690040854871E9, 0.0, 2024-06-15 11:30:04.085
4.0, 49445.635014252075, 69125.40723388281, -18140.96637260513, -187500.02235174447, 72520.03371954367, -187500.02235174447, -187500.02235174447, -187500.02235174447, -0.214, 0.97, 0.02, 192.0, 0.0, 0.0, 0.0, 0.0, 0.0, 0.0, 0.0, 0.0, 0.0, 1.7184690040854979E9, 0.0, 2024-06-15 11:30:04.085
5.0, 49237.2720524397, 68896.2124462381, -16752.230137852446, -187500.02235174447, 72545.89468787846, -187500.02235174447, -187500.02235174447, -187500.02235174447, -0.214, 0.97, 0.02, 192.0, 0.0, 0.0, 0.0, 0.0, 0.0, 0.0, 0.0, 0.0, 0.0, 1.7184690040855076E9, 0.0, 2024-06-15 11:30:04.085
6.0, 49215.45674985132, 68883.00256526501, -15181.90833114485, -187500.02235174447, 72376.31200269604, -187500.02235174447, -187500.02235174447, -187500.02235174447, -0.214, 0.97, 0.02, 192.0, 0.0, 0.0, 0.0, 0.0, 0.0, 0.0, 0.0, 0.0, 0.0, 1.7184690040855174E9, 0.0, 2024-06-15 11:30:04.085
7.0, 49300.79571018168, 68978.71273502264, -15969.919081916702, -187500.02235174447, 72364.62204034592, -187500.02235174447, -187500.02235174447, -187500.02235174447, -0.214, 0.97, 0.02, 192.0, 0.0, 0.0, 0.0, 0.0, 0.0, 0.0, 0.0, 0.0, 0.0, 1.7184690040855272E9, 0.0, 2024-06-15 11:30:04.085
8.0, 49469.59608430816, 69155.98442029768, -18069.32903162587, -187500.02235174447, 72505.70625134782, -187500.02235174447, -187500.02235174447, -187500.02235174447, -0.228, 0.972, 0.05, 192.0, 248.0, 224.0, 30.0, 96.0, 1.0, 144.0, 0.0, 0.0, 0.0, 1.7184690040855367E9, 0.0, 2024-06-15 11:30:04.085
9.0, 49266.06109929814, 68923.59333319585, -17213.100756776425, -187500.02235174447, 72586.59721453158, -187500.02235174447, -187500.02235174447, -187500.02235174447, -0.228, 0.972, 0.05, 192.0, 0.0, 0.0, 0.0, 0.0, 0.0, 0.0, 0.0, 0.0, 0.0, 1.7184690040855465E9, 0.0, 2024-06-15 11:30:04.085
10.0, 49185.30424658111, 68850.59253580481, -15244.292049919612, -187500.02235174447, 72389.25366273566, -187500.02235174447, -187500.02235174447, -187500.02235174447, -0.228, 0.972, 0.05, 192.0, 0.0, 0.0, 0.0, 0.0, 0.0, 0.0, 0.0, 0.0, 0.0, 1.718469004085556E9, 0.0, 2024-06-15 11:30:04.085
11.0, 49274.86768661353, 68935.05977810142, -15582.563350506229, -187500.02235174447, 72363.52680486761, -187500.02235174447, -187500.02235174447, -187500.02235174447, -0.228, 0.972, 0.05, 192.0, 0.0, 0.0, 0.0, 0.0, 0.0, 0.0, 0.0, 0.0, 0.0, 1.7184690040855663E9, 0.0, 2024-06-15 11:30:04.085
12.0, 49450.8206189657, 69129.34114090695, -17801.443374329017, -187500.02235174447, 72452.64321001092, -187500.02235174447, -187500.02235174447, -187500.02235174447, -0.228, 0.972, 0.05, 192.0, 0.0, 0.0, 0.0, 0.0, 0.0, 0.0, 0.0, 0.0, 0.0, 1.718469004085576E9, 0.0, 2024-06-15 11:30:04.085
13.0, 49308.0376753852, 68973.0800954199, -17638.096825849632, -187500.02235174447, 72606.64672930798, -187500.02235174447, -187500.02235174447, -187500.02235174447, -0.228, 0.972, 0.05, 192.0, 0.0, 0.0, 0.0, 0.0, 0.0, 0.0, 0.0, 0.0, 0.0, 1.7184690040855856E9, 0.0, 2024-06-15 11:30:04.085
14.0, 49169.613321973484, 68840.55660254438, -15476.951357954904, -187500.02235174447, 72427.11751784295, -187500.02235174447, -187500.02235174447, -187500.02235174447, -0.228, 0.972, 0.05, 192.0, 0.0, 0.0, 0.0, 0.0, 0.0, 0.0, 0.0, 0.0, 0.0, 1.7184690040855951E9, 0.0, 2024-06-15 11:30:04.085
15.0, 49235.23804369427, 68904.99668180903, -15337.3200103426, -187500.02235174447, 72355.05549371905, -187500.02235174447, -187500.02235174447, -187500.02235174447, -0.228, 0.972, 0.05, 192.0, 0.0, 0.0, 0.0, 0.0, 0.0, 0.0, 0.0, 0.0, 0.0, 1.718469004085605E9, 0.0, 2024-06-15 11:30:04.085
16.0, 49431.48636001186, 69110.90095173132, -17456.041867261156, -187500.02235174447, 72410.51017171267, -187500.02235174447, -187500.02235174447, -187500.02235174447, -0.228, 0.972, 0.05, 192.0, 0.0, 0.0, 0.0, 0.0, 0.0, 0.0, 0.0, 0.0, 0.0, 1.7184690040856147E9, 0.0, 2024-06-15 11:30:04.085
17.0, 49369.16969647047, 69039.26361075207, -18006.475926217547, -187500.02235174447, 72608.72544154232, -187500.02235174447, -187500.02235174447, -187500.02235174447, -0.228, 0.972, 0.05, 192.0, 0.0, 0.0, 0.0, 0.0, 0.0, 0.0, 0.0, 0.0, 0.0, 1.7184690040856247E9, 0.0, 2024-06-15 11:30:04.085
18.0, 49174.01661563118, 68854.41468410667, -15777.001175522946, -187500.02235174447, 72460.68983801482, -187500.02235174447, -187500.02235174447, -187500.02235174447, -0.23800000000000002, 0.96, 0.07200000000000001, 192.0, 248.0, 144.0, 30.0, 0.0, 2.0, 64.0, 0.0, 0.0, 0.0, 1.7184690040856345E9, 0.0, 2024-06-15 11:30:04.085
19.0, 49210.62877304897, 68895.3630799488, -15127.23596420717, -187500.02235174447, 72343.67845579129, -187500.02235174447, -187500.02235174447, -187500.02235174447, -0.23800000000000002, 0.96, 0.07200000000000001, 192.0, 0.0, 0.0, 0.0, 0.0, 0.0, 0.0, 0.0, 0.0, 0.0, 1.7184690040856483E9, 0.0, 2024-06-15 11:30:04.085
20.0, 49406.407702733006, 69090.33734683244, -17007.151783365225, -187500.02235174447, 72377.51899689663, -187500.02235174447, -187500.02235174447, -187500.02235174447, -0.23800000000000002, 0.96, 0.07200000000000001, 192.0, 0.0, 0.0, 0.0, 0.0, 0.0, 0.0, 0.0, 0.0, 0.0, 1.718469004085658E9, 0.0, 2024-06-15 11:30:04.085
21.0, 49423.59619421914, 69098.69689925872, -18205.6970245477, -187500.02235174447, 72592.11809541204, -187500.02235174447, -187500.02235174447, -187500.02235174447, -0.23800000000000002, 0.96, 0.07200000000000001, 192.0, 0.0, 0.0, 0.0, 0.0, 0.0, 0.0, 0.0, 0.0, 0.0, 1.7184690040856676E9, 0.0, 2024-06-15 11:30:04.085
22.0, 49190.71336873929, 68854.25822189549, -16115.853621465401, -187500.02235174447, 72502.80052456862, -187500.02235174447, -187500.02235174447, -187500.02235174447, -0.23800000000000002, 0.96, 0.07200000000000001, 192.0, 0.0, 0.0, 0.0, 0.0, 0.0, 0.0, 0.0, 0.0, 0.0, 1.718469004085677E9, 0.0, 2024-06-15 11:30:04.085
23.0, 49212.685133538864, 68879.49334138553, -15049.83187315844, -187500.02235174447, 72354.40729312984, -187500.02235174447, -187500.02235174447, -187500.02235174447, -0.23800000000000002, 0.96, 0.07200000000000001, 192.0, 0.0, 0.0, 0.0, 0.0, 0.0, 0.0, 0.0, 0.0, 0.0, 1.7184690040856867E9, 0.0, 2024-06-15 11:30:04.085
24.0, 49367.0015772583, 69044.67273291024, -16587.922464361487, -187500.02235174447, 72355.23430767469, -187500.02235174447, -187500.02235174447, -187500.02235174447, -0.23800000000000002, 0.96, 0.07200000000000001, 192.0, 0.0, 0.0, 0.0, 0.0, 0.0, 0.0, 0.0, 0.0, 0.0, 1.7184690040856962E9, 0.0, 2024-06-15 11:30:04.085
25.0, 49473.08295644319, 69163.71812387921, -18355.051380998062, -187500.02235174447, 72564.379580543, -187500.02235174447, -187500.02235174447, -187500.02235174447, -0.23800000000000002, 0.96, 0.07200000000000001, 192.0, 0.0, 0.0, 0.0, 0.0, 0.0, 0.0, 0.0, 0.0, 0.0, 1.7184690040857055E9, 0.0, 2024-06-15 11:30:04.085
26.0, 49188.65700824941, 68862.97540223306, -16546.348219674615, -187500.02235174447, 72526.4710219468, -187500.02235174447, -187500.02235174447, -187500.02235174447, -0.23800000000000002, 0.96, 0.07200000000000001, 192.0, 0.0, 0.0, 0.0, 0.0, 0.0, 0.0, 0.0, 0.0, 0.0, 1.7184690040857153E9, 0.0, 2024-06-15 11:30:04.085
27.0, 49181.01271164569, 68860.09202719832, -15020.72990187763, -187500.02235174447, 72349.33344713849, -187500.02235174447, -187500.02235174447, -187500.02235174447, -0.23800000000000002, 0.96, 0.07200000000000001, 192.0, 0.0, 0.0, 0.0, 0.0, 0.0, 0.0, 0.0, 0.0, 0.0, 1.718469004085725E9, 0.0, 2024-06-15 11:30:04.085
28.0, 49319.25825110177, 68995.23067417511, -16111.293865596517, -187500.02235174447, 72338.98458945568, -187500.02235174447, -187500.02235174447, -187500.02235174447, -0.23800000000000002, 0.96, 0.07200000000000001, 192.0, 0.0, 0.0, 0.0, 0.0, 0.0, 0.0, 0.0, 0.0, 0.0, 1.7184690040857344E9, 0.0, 2024-06-15 11:30:04.085
29.0, 49461.147124904055, 69144.02623701408, -18220.873859032854, -187500.02235174447, 72495.58091110956, -187500.02235174447, -187500.02235174447, -187500.02235174447, -0.24, 0.9540000000000001, 0.084, 192.0, 248.0, 128.0, 29.0, 208.0, 2.0, 160.0, 0.0, 0.0, 0.0, 1.718469004085744E9, 0.0, 2024-06-15 11:30:04.085
30.0, 49242.256491453234, 68911.27752200098, -16980.55320746341, -187500.02235174447, 72578.12590338301, -187500.02235174447, -187500.02235174447, -187500.02235174447, -0.24, 0.9540000000000001, 0.084, 192.0, 0.0, 0.0, 0.0, 0.0, 0.0, 0.0, 0.0, 0.0, 0.0, 1.7184690040857544E9, 0.0, 2024-06-15 11:30:04.085
31.0, 49183.538458769144, 68863.33303014435, -15111.500336110634, -187500.02235174447, 72399.87074135193, -187500.02235174447, -187500.02235174447, -187500.02235174447, -0.24, 0.9540000000000001, 0.084, 192.0, 0.0, 0.0, 0.0, 0.0, 0.0, 0.0, 0.0, 0.0, 0.0, 1.7184690040857637E9, 0.0, 2024-06-15 11:30:04.085
32.0, 49275.1806110359, 68951.80123469845, -15718.0596253943, -187500.02235174447, 72348.46172910473, -187500.02235174447, -187500.02235174447, -187500.02235174447, -0.24, 0.9540000000000001, 0.084, 192.0, 0.0, 0.0, 0.0, 0.0, 0.0, 0.0, 0.0, 0.0, 0.0, 1.7184690040857737E9, 0.0, 2024-06-15 11:30:04.085
33.0, 49491.74666306337, 69186.76277241264, -18065.99862170203, -187500.02235174447, 72470.74812301972, -187500.02235174447, -187500.02235174447, -187500.02235174447, -0.24, 0.9540000000000001, 0.084, 192.0, 0.0, 0.0, 0.0, 0.0, 0.0, 0.0, 0.0, 0.0, 0.0, 1.718469004085783E9, 0.0, 2024-06-15 11:30:04.085
34.0, 49293.71020718935, 68979.80797050094, -17477.253672749244, -187500.02235174447, 72610.02184272073, -187500.02235174447, -187500.02235174447, -187500.02235174447, -0.24, 0.9540000000000001, 0.084, 192.0, 0.0, 0.0, 0.0, 0.0, 0.0, 0.0, 0.0, 0.0, 0.0, 1.7184690040857923E9, 0.0, 2024-06-15 11:30:04.085
35.0, 49161.723156180764, 68849.38554160424, -15274.377497956455, -187500.02235174447, 72403.62583442043, -187500.02235174447, -187500.02235174447, -187500.02235174447, -0.24, 0.9540000000000001, 0.084, 192.0, 0.0, 0.0, 0.0, 0.0, 0.0, 0.0, 0.0, 0.0, 0.0, 1.7184690040858023E9, 0.0, 2024-06-15 11:30:04.085
36.0, 49257.54508466066, 68923.79449889595, -15415.52876419172, -187500.02235174447, 72347.85823200444, -187500.02235174447, -187500.02235174447, -187500.02235174447, -0.24, 0.9540000000000001, 0.084, 192.0, 0.0, 0.0, 0.0, 0.0, 0.0, 0.0, 0.0, 0.0, 0.0, 1.7184690040858119E9, 0.0, 2024-06-15 11:30:04.085
37.0, 49476.16749717802, 69159.73951336616, -17772.184940837018, -187500.02235174447, 72427.4974974987, -187500.02235174447, -187500.02235174447, -187500.02235174447, -0.24, 0.9540000000000001, 0.084, 192.0, 0.0, 0.0, 0.0, 0.0, 0.0, 0.0, 0.0, 0.0, 0.0, 1.7184690040858212E9, 0.0, 2024-06-15 11:30:04.085
38.0, 49348.0472979602, 69033.20628800467, -17874.846503120247, -187500.02235174447, 72610.73709854331, -187500.02235174447, -187500.02235174447, -187500.02235174447, -0.24, 0.9540000000000001, 0.084, 192.0, 0.0, 0.0, 0.0, 0.0, 0.0, 0.0, 0.0, 0.0, 0.0, 1.7184690040858307E9, 0.0, 2024-06-15 11:30:04.085
39.0, 49158.83978114602, 68849.94433521561, -15522.59362013264, -187500.02235174447, 72433.86774466846, -187500.02235174447, -187500.02235174447, -187500.02235174447, -0.24, 0.9520000000000001, 0.088, 192.0, 248.0, 128.0, 29.0, 192.0, 2.0, 192.0, 0.0, 0.0, 0.0, 1.7184690040858407E9, 0.0, 2024-06-15 11:30:04.085
40.0, 49217.714276041304, 68889.5069229015, -15147.66545863932, -187500.02235174447, 72348.41702561582, -187500.02235174447, -187500.02235174447, -187500.02235174447, -0.24, 0.9520000000000001, 0.088, 192.0, 0.0, 0.0, 0.0, 0.0, 0.0, 0.0, 0.0, 0.0, 0.0, 1.71846900408585E9, 0.0, 2024-06-15 11:30:04.085
41.0, 49438.10247637063, 69111.8620767429, -17326.737025587205, -187500.02235174447, 72401.52477044163, -187500.02235174447, -187500.02235174447, -187500.02235174447, -0.24, 0.9520000000000001, 0.088, 192.0, 0.0, 0.0, 0.0, 0.0, 0.0, 0.0, 0.0, 0.0, 0.0, 1.7184690040858595E9, 0.0, 2024-06-15 11:30:04.085
42.0, 49390.91794382548, 69057.7485034166, -18172.482332287113, -187500.02235174447, 72614.64865382298, -187500.02235174447, -187500.02235174447, -187500.02235174447, -0.24, 0.9520000000000001, 0.088, 192.0, 0.0, 0.0, 0.0, 0.0, 0.0, 0.0, 0.0, 0.0, 0.0, 1.7184690040858693E9, 0.0, 2024-06-15 11:30:04.085
43.0, 49158.39274625692, 68824.9997884035, -15830.645362215682, -187500.02235174447, 72472.71507653178, -187500.02235174447, -187500.02235174447, -187500.02235174447, -0.24, 0.9520000000000001, 0.088, 192.0, 0.0, 0.0, 0.0, 0.0, 0.0, 0.0, 0.0, 0.0, 0.0, 1.7184690040858788E9, 0.0, 2024-06-15 11:30:04.085
44.0, 49209.22061314829, 68876.81113205089, -14981.279072914014, -187500.02235174447, 72351.7250837952, -187500.02235174447, -187500.02235174447, -187500.02235174447, -0.24, 0.9520000000000001, 0.088, 192.0, 0.0, 0.0, 0.0, 0.0, 0.0, 0.0, 0.0, 0.0, 0.0, 1.7184690040858881E9, 0.0, 2024-06-15 11:30:04.085
45.0, 49383.36305419959, 69060.60952670689, -16823.50985092042, -187500.02235174447, 72353.51322335163, -187500.02235174447, -187500.02235174447, -187500.02235174447, -0.24, 0.9520000000000001, 0.088, 192.0, 0.0, 0.0, 0.0, 0.0, 0.0, 0.0, 0.0, 0.0, 0.0, 1.718469004085898E9, 0.0, 2024-06-15 11:30:04.085
46.0, 49426.948955887434, 69109.67160578628, -18305.34110132946, -187500.02235174447, 72568.53700501168, -187500.02235174447, -187500.02235174447, -187500.02235174447, -0.24, 0.9520000000000001, 0.088, 192.0, 0.0, 0.0, 0.0, 0.0, 0.0, 0.0, 0.0, 0.0, 0.0, 1.7184690040859082E9, 0.0, 2024-06-15 11:30:04.085
47.0, 49182.68909247984, 68861.0531522099, -16205.64057894237, -187500.02235174447, 72521.28541723316, -187500.02235174447, -187500.02235174447, -187500.02235174447, -0.24, 0.9520000000000001, 0.088, 192.0, 0.0, 0.0, 0.0, 0.0, 0.0, 0.0, 0.0, 0.0, 0.0, 1.7184690040859177E9, 0.0, 2024-06-15 11:30:04.085
48.0, 49186.64535124843, 68867.46810286857, -14873.051926261418, -187500.02235174447, 72354.6755140633, -187500.02235174447, -187500.02235174447, -187500.02235174447, -0.24, 0.9520000000000001, 0.088, 192.0, 0.0, 0.0, 0.0, 0.0, 0.0, 0.0, 0.0, 0.0, 0.0, 1.7184690040859275E9, 0.0, 2024-06-15 11:30:04.085
49.0, 49357.23386493133, 69040.93999158622, -16349.049371367619, -187500.02235174447, 72347.0759209485, -187500.02235174447, -187500.02235174447, -187500.02235174447, -0.244, 0.9520000000000001, 0.092, 192.0, 248.0, 96.0, 29.0, 192.0, 2.0, 224.0, 0.0, 0.0, 0.0, 1.718469004085937E9, 0.0, 2024-06-15 11:30:04.085
50.0, 49475.631055311096, 69172.23413851668, -18376.82198009753, -187500.02235174447, 72552.68961819288, -187500.02235174447, -187500.02235174447, -187500.02235174447, -0.244, 0.9520000000000001, 0.092, 192.0, 0.0, 0.0, 0.0, 0.0, 0.0, 0.0, 0.0, 0.0, 0.0, 1.7184690040859463E9, 0.0, 2024-06-15 11:30:04.085
51.0, 49192.12152863998, 68864.24945166701, -16658.933956495996, -187500.02235174447, 72564.5807462431, -187500.02235174447, -187500.02235174447, -187500.02235174447, -0.244, 0.9520000000000001, 0.092, 192.0, 0.0, 0.0, 0.0, 0.0, 0.0, 0.0, 0.0, 0.0, 0.0, 1.718469004085956E9, 0.0, 2024-06-15 11:30:04.085
52.0, 49143.81940887206, 68819.45655577857, -14841.826539257354, -187500.02235174447, 72354.36258964094, -187500.02235174447, -187500.02235174447, -187500.02235174447, -0.244, 0.9520000000000001, 0.092, 192.0, 0.0, 0.0, 0.0, 0.0, 0.0, 0.0, 0.0, 0.0, 0.0, 1.7184690040859659E9, 0.0, 2024-06-15 11:30:04.085
53.0, 49302.20387008237, 68979.2268251451, -15849.890214191702, -187500.02235174447, 72330.33446435147, -187500.02235174447, -187500.02235174447, -187500.02235174447, -0.244, 0.9520000000000001, 0.092, 192.0, 0.0, 0.0, 0.0, 0.0, 0.0, 0.0, 0.0, 0.0, 0.0, 1.7184690040859756E9, 0.0, 2024-06-15 11:30:04.085
54.0, 49490.53966886278, 69177.95618509724, -18224.98658001263, -187500.02235174447, 72497.8160855551, -187500.02235174447, -187500.02235174447, -187500.02235174447, -0.244, 0.9520000000000001, 0.092, 192.0, 0.0, 0.0, 0.0, 0.0, 0.0, 0.0, 0.0, 0.0, 0.0, 1.7184690040859852E9, 0.0, 2024-06-15 11:30:04.085
55.0, 49253.78999159217, 68919.90529536073, -17114.86483989535, -187500.02235174447, 72601.72934552781, -187500.02235174447, -187500.02235174447, -187500.02235174447, -0.244, 0.9520000000000001, 0.092, 192.0, 0.0, 0.0, 0.0, 0.0, 0.0, 0.0, 0.0, 0.0, 0.0, 1.7184690040859947E9, 0.0, 2024-06-15 11:30:04.085
56.0, 49153.900045621405, 68830.96770417306, -14972.360726876346, -187500.02235174447, 72397.8367326065, -187500.02235174447, -187500.02235174447, -187500.02235174447, -0.244, 0.9520000000000001, 0.092, 192.0, 0.0, 0.0, 0.0, 0.0, 0.0, 0.0, 0.0, 0.0, 0.0, 1.7184690040860045E9, 0.0, 2024-06-15 11:30:04.086
57.0, 49267.24574175427, 68945.25217357304, -15478.560683555686, -187500.02235174447, 72345.08661569198, -187500.02235174447, -187500.02235174447, -187500.02235174447, -0.244, 0.9520000000000001, 0.092, 192.0, 0.0, 0.0, 0.0, 0.0, 0.0, 0.0, 0.0, 0.0, 0.0, 1.7184690040860138E9, 0.0, 2024-06-15 11:30:04.086
58.0, 49480.369625135616, 69184.97463285622, -18003.301978504896, -187500.02235174447, 72454.9454396898, -187500.02235174447, -187500.02235174447, -187500.02235174447, -0.244, 0.9520000000000001, 0.092, 192.0, 0.0, 0.0, 0.0, 0.0, 0.0, 0.0, 0.0, 0.0, 0.0, 1.7184690040860236E9, 0.0, 2024-06-15 11:30:04.086
59.0, 49293.95607637836, 68978.19864490017, -17602.378738210053, -187500.02235174447, 72615.31920615664, -187500.02235174447, -187500.02235174447, -187500.02235174447, -0.246, 0.9540000000000001, 0.088, 192.0, 248.0, 80.0, 29.0, 208.0, 2.0, 192.0, 0.0, 0.0, 0.0, 1.718469004086033E9, 0.0, 2024-06-15 11:30:04.086
60.0, 49128.01672554216, 68814.27095106494, -15165.189226292281, -187500.02235174447, 72399.9377965853, -187500.02235174447, -187500.02235174447, -187500.02235174447, -0.246, 0.9540000000000001, 0.088, 192.0, 0.0, 0.0, 0.0, 0.0, 0.0, 0.0, 0.0, 0.0, 0.0, 1.718469004086043E9, 0.0, 2024-06-15 11:30:04.086
61.0, 49233.874587282495, 68905.82369635388, -15157.634336666386, -187500.02235174447, 72341.42092960131, -187500.02235174447, -187500.02235174447, -187500.02235174447, -0.246, 0.9540000000000001, 0.088, 192.0, 0.0, 0.0, 0.0, 0.0, 0.0, 0.0, 0.0, 0.0, 0.0, 1.7184690040860522E9, 0.0, 2024-06-15 11:30:04.086
62.0, 49455.11215390112, 69147.31194344902, -17609.352482480106, -187500.02235174447, 72409.72786065673, -187500.02235174447, -187500.02235174447, -187500.02235174447, -0.246, 0.9540000000000001, 0.088, 192.0, 0.0, 0.0, 0.0, 0.0, 0.0, 0.0, 0.0, 0.0, 0.0, 1.7184690040860648E9, 0.0, 2024-06-15 11:30:04.086
63.0, 49364.36407141257, 69044.82919512143, -17975.295242702396, -187500.02235174447, 72620.32599691463, -187500.02235174447, -187500.02235174447, -187500.02235174447, -0.246, 0.9540000000000001, 0.088, 192.0, 0.0, 0.0, 0.0, 0.0, 0.0, 0.0, 0.0, 0.0, 0.0, 1.7184690040860744E9, 0.0, 2024-06-15 11:30:04.086
64.0, 49158.16922881237, 68822.58580000231, -15494.519829096775, -187500.02235174447, 72457.11355890198, -187500.02235174447, -187500.02235174447, -187500.02235174447, -0.246, 0.9540000000000001, 0.088, 192.0, 0.0, 0.0, 0.0, 0.0, 0.0, 0.0, 0.0, 0.0, 0.0, 1.7184690040860844E9, 0.0, 2024-06-15 11:30:04.086
65.0, 49183.314941324585, 68839.81899497737, -14913.732101170077, -187500.02235174447, 72323.60658927044, -187500.02235174447, -187500.02235174447, -187500.02235174447, -0.246, 0.9540000000000001, 0.088, 192.0, 0.0, 0.0, 0.0, 0.0, 0.0, 0.0, 0.0, 0.0, 0.0, 1.718469004086094E9, 0.0, 2024-06-15 11:30:04.086
66.0, 49394.315408982686, 69063.71641918617, -17111.2885607825, -187500.02235174447, 72350.83101401699, -187500.02235174447, -187500.02235174447, -187500.02235174447, -0.246, 0.9540000000000001, 0.088, 192.0, 0.0, 0.0, 0.0, 0.0, 0.0, 0.0, 0.0, 0.0, 0.0, 1.7184690040861034E9, 0.0, 2024-06-15 11:30:04.086
67.0, 49390.51561242528, 69059.93897437322, -18229.32281843696, -187500.02235174447, 72590.15114189997, -187500.02235174447, -187500.02235174447, -187500.02235174447, -0.246, 0.9540000000000001, 0.088, 192.0, 0.0, 0.0, 0.0, 0.0, 0.0, 0.0, 0.0, 0.0, 0.0, 1.7184690040861135E9, 0.0, 2024-06-15 11:30:04.086
68.0, 49151.173132797856, 68819.12127961175, -15836.27800181842, -187500.02235174447, 72490.3058994181, -187500.02235174447, -187500.02235174447, -187500.02235174447, -0.246, 0.9540000000000001, 0.088, 192.0, 0.0, 0.0, 0.0, 0.0, 0.0, 0.0, 0.0, 0.0, 0.0, 1.718469004086123E9, 0.0, 2024-06-15 11:30:04.086
69.0, 49169.21099057329, 68839.1484426437, -14765.07064879783, -187500.02235174447, 72339.20810690023, -187500.02235174447, -187500.02235174447, -187500.02235174447, -0.246, 0.9540000000000001, 0.088, 192.0, 0.0, 0.0, 0.0, 0.0, 0.0, 0.0, 0.0, 0.0, 0.0, 1.7184690040861323E9, 0.0, 2024-06-15 11:30:04.086
70.0, 49372.500106394305, 69047.8466806229, -16618.3208368207, -187500.02235174447, 72332.68139751928, -187500.02235174447, -187500.02235174447, -187500.02235174447, -0.242, 0.966, 0.088, 192.0, 248.0, 112.0, 30.0, 48.0, 2.0, 192.0, 0.0, 0.0, 0.0, 1.7184690040861423E9, 0.0, 2024-06-15 11:30:04.086
71.0, 49468.52320057431, 69146.01554227062, -18425.50407952119, -187500.02235174447, 72572.15798761345, -187500.02235174447, -187500.02235174447, -187500.02235174447, -0.242, 0.966, 0.088, 192.0, 0.0, 0.0, 0.0, 0.0, 0.0, 0.0, 0.0, 0.0, 0.0, 1.718469004086152E9, 0.0, 2024-06-15 11:30:04.086
72.0, 49159.93501662434, 68824.37393955875, -16276.808533288067, -187500.02235174447, 72515.22809448578, -187500.02235174447, -187500.02235174447, -187500.02235174447, -0.242, 0.966, 0.088, 192.0, 0.0, 0.0, 0.0, 0.0, 0.0, 0.0, 0.0, 0.0, 0.0, 1.7184690040861616E9, 0.0, 2024-06-15 11:30:04.086
73.0, 49158.14687706791, 68826.65381749318, -14711.158241171628, -187500.02235174447, 72334.91657196482, -187500.02235174447, -187500.02235174447, -187500.02235174447, -0.242, 0.966, 0.088, 192.0, 0.0, 0.0, 0.0, 0.0, 0.0, 0.0, 0.0, 0.0, 0.0, 1.7184690040861712E9, 0.0, 2024-06-15 11:30:04.086
74.0, 49318.85591970157, 68986.3793833708, -16116.300656354506, -187500.02235174447, 72318.37628106789, -187500.02235174447, -187500.02235174447, -187500.02235174447, -0.242, 0.966, 0.088, 192.0, 0.0, 0.0, 0.0, 0.0, 0.0, 0.0, 0.0, 0.0, 0.0, 1.7184690040861807E9, 0.0, 2024-06-15 11:30:04.086
75.0, 49474.02172971031, 69152.85517607394, -18386.03089881312, -187500.02235174447, 72519.5196294212, -187500.02235174447, -187500.02235174447, -187500.02235174447, -0.242, 0.966, 0.088, 192.0, 0.0, 0.0, 0.0, 0.0, 0.0, 0.0, 0.0, 0.0, 0.0, 1.7184690040861907E9, 0.0, 2024-06-15 11:30:04.086
76.0, 49220.307078398124, 68880.83444605285, -16787.65765281411, -187500.02235174447, 72580.33872608408, -187500.02235174447, -187500.02235174447, -187500.02235174447, -0.242, 0.966, 0.088, 192.0, 0.0, 0.0, 0.0, 0.0, 0.0, 0.0, 0.0, 0.0, 0.0, 1.7184690040862002E9, 0.0, 2024-06-15 11:30:04.086
77.0, 49147.350984496, 68819.85888717877, -14782.92969261762, -187500.02235174447, 72368.31007818105, -187500.02235174447, -187500.02235174447, -187500.02235174447, -0.242, 0.966, 0.088, 192.0, 0.0, 0.0, 0.0, 0.0, 0.0, 0.0, 0.0, 0.0, 0.0, 1.71846900408621E9, 0.0, 2024-06-15 11:30:04.086
78.0, 49272.90073310146, 68942.36879853831, -15674.317261495265, -187500.02235174447, 72323.5171822926, -187500.02235174447, -187500.02235174447, -187500.02235174447, -0.242, 0.966, 0.088, 192.0, 0.0, 0.0, 0.0, 0.0, 0.0, 0.0, 0.0, 0.0, 0.0, 1.7184690040862195E9, 0.0, 2024-06-15 11:30:04.086
79.0, 49479.29674140176, 69159.73951336616, -18247.025400045564, -187500.02235174447, 72478.57123357907, -187500.02235174447, -187500.02235174447, -187500.02235174447, -0.242, 0.966, 0.088, 192.0, 0.0, 0.0, 0.0, 0.0, 0.0, 0.0, 0.0, 0.0, 0.0, 1.7184690040862288E9, 0.0, 2024-06-15 11:30:04.086
80.0, 49235.327450672085, 68888.09876300082, -17278.032574419092, -187500.02235174447, 72597.54956931467, -187500.02235174447, -187500.02235174447, -187500.02235174447, -0.23600000000000002, 0.9580000000000001, 0.094, 192.0, 248.0, 160.0, 29.0, 240.0, 2.0, 240.0, 0.0, 0.0, 0.0, 1.7184690040862384E9, 0.0, 2024-06-15 11:30:04.086
81.0, 49113.80101606858, 68770.34977321027, -14894.956635827619, -187500.02235174447, 72368.95827877025, -187500.02235174447, -187500.02235174447, -187500.02235174447, -0.23600000000000002, 0.9580000000000001, 0.094, 192.0, 0.0, 0.0, 0.0, 0.0, 0.0, 0.0, 0.0, 0.0, 0.0, 1.718469004086248E9, 0.0, 2024-06-15 11:30:04.086
82.0, 49234.70160182734, 68886.04240251094, -15266.330869952544, -187500.02235174447, 72315.69407173325, -187500.02235174447, -187500.02235174447, -187500.02235174447, -0.23600000000000002, 0.9580000000000001, 0.094, 192.0, 0.0, 0.0, 0.0, 0.0, 0.0, 0.0, 0.0, 0.0, 0.0, 1.7184690040862577E9, 0.0, 2024-06-15 11:30:04.086
83.0, 49444.24920609584, 69116.9135709898, -17880.903825867634, -187500.02235174447, 72410.39841299038, -187500.02235174447, -187500.02235174447, -187500.02235174447, -0.23600000000000002, 0.9580000000000001, 0.094, 192.0, 0.0, 0.0, 0.0, 0.0, 0.0, 0.0, 0.0, 0.0, 0.0, 1.7184690040862672E9, 0.0, 2024-06-15 11:30:04.086
84.0, 49315.14553012199, 68977.19281639968, -17719.770100089325, -187500.02235174447, 72616.63795907951, -187500.02235174447, -187500.02235174447, -187500.02235174447, -0.23600000000000002, 0.9580000000000001, 0.094, 192.0, 0.0, 0.0, 0.0, 0.0, 0.0, 0.0, 0.0, 0.0, 0.0, 1.718469004086277E9, 0.0, 2024-06-15 11:30:04.086
85.0, 49139.997260570206, 68796.30014852287, -15169.324299016513, -187500.02235174447, 72428.07864285454, -187500.02235174447, -187500.02235174447, -187500.02235174447, -0.23600000000000002, 0.9580000000000001, 0.094, 192.0, 0.0, 0.0, 0.0, 0.0, 0.0, 0.0, 0.0, 0.0, 0.0, 1.7184690040862877E9, 0.0, 2024-06-15 11:30:04.086
86.0, 49192.277990851166, 68842.05416942289, -14963.174159905215, -187500.02235174447, 72320.61145551341, -187500.02235174447, -187500.02235174447, -187500.02235174447, -0.23600000000000002, 0.9580000000000001, 0.094, 192.0, 0.0, 0.0, 0.0, 0.0, 0.0, 0.0, 0.0, 0.0, 0.0, 1.7184690040862973E9, 0.0, 2024-06-15 11:30:04.086
87.0, 49410.5651272017, 69084.43648629624, -17456.98064052828, -187500.02235174447, 72366.79015955808, -187500.02235174447, -187500.02235174447, -187500.02235174447, -0.23600000000000002, 0.9580000000000001, 0.094, 192.0, 0.0, 0.0, 0.0, 0.0, 0.0, 0.0, 0.0, 0.0, 0.0, 1.7184690040863068E9, 0.0, 2024-06-15 11:30:04.086
88.0, 49337.251405388284, 68984.70300253665, -18052.18524362865, -187500.02235174447, 72585.90431045345, -187500.02235174447, -187500.02235174447, -187500.02235174447, -0.23600000000000002, 0.9580000000000001, 0.094, 192.0, 0.0, 0.0, 0.0, 0.0, 0.0, 0.0, 0.0, 0.0, 0.0, 1.7184690040863163E9, 0.0, 2024-06-15 11:30:04.086
89.0, 49125.446274929796, 68763.08545626228, -15439.690999947907, -187500.02235174447, 72442.96490466177, -187500.02235174447, -187500.02235174447, -187500.02235174447, -0.23600000000000002, 0.9580000000000001, 0.094, 192.0, 0.0, 0.0, 0.0, 0.0, 0.0, 0.0, 0.0, 0.0, 0.0, 1.718469004086326E9, 0.0, 2024-06-15 11:30:04.086
90.0, 49190.33338908356, 68829.76070997247, -14725.329247156293, -187500.02235174447, 72331.31794110751, -187500.02235174447, -187500.02235174447, -187500.02235174447, -0.24, 0.9500000000000001, 0.096, 192.0, 248.0, 128.0, 29.0, 176.0, 3.0, 0.0, 0.0, 0.0, 0.0, 1.7184690040863357E9, 0.0, 2024-06-15 11:30:04.086
91.0, 49410.609830690606, 69059.29077378401, -16973.93709110464, -187500.02235174447, 72358.76588329862, -187500.02235174447, -187500.02235174447, -187500.02235174447, -0.24, 0.9500000000000001, 0.096, 192.0, 0.0, 0.0, 0.0, 0.0, 0.0, 0.0, 0.0, 0.0, 0.0, 1.7184690040863452E9, 0.0, 2024-06-15 11:30:04.086
92.0, 49425.47374075338, 69066.24216630962, -18381.046459799585, -187500.02235174447, 72602.19873216137, -187500.02235174447, -187500.02235174447, -187500.02235174447, -0.24, 0.9500000000000001, 0.096, 192.0, 0.0, 0.0, 0.0, 0.0, 0.0, 0.0, 0.0, 0.0, 0.0, 1.7184690040863547E9, 0.0, 2024-06-15 11:30:04.086
93.0, 49114.0915887465, 68742.63361008569, -15867.23516788902, -187500.02235174447, 72477.92303298987, -187500.02235174447, -187500.02235174447, -187500.02235174447, -0.24, 0.9500000000000001, 0.096, 192.0, 0.0, 0.0, 0.0, 0.0, 0.0, 0.0, 0.0, 0.0, 0.0, 1.7184690040863645E9, 0.0, 2024-06-15 11:30:04.086
94.0, 49144.98169958374, 68778.61991865873, -14583.149800676085, -187500.02235174447, 72314.55413276603, -187500.02235174447, -187500.02235174447, -187500.02235174447, -0.24, 0.9500000000000001, 0.096, 192.0, 0.0, 0.0, 0.0, 0.0, 0.0, 0.0, 0.0, 0.0, 0.0, 1.718469004086374E9, 0.0, 2024-06-15 11:30:04.086
95.0, 49361.50304812229, 69005.69129058019, -16438.34459046657, -187500.02235174447, 72335.56477255402, -187500.02235174447, -187500.02235174447, -187500.02235174447, -0.24, 0.9500000000000001, 0.096, 192.0, 0.0, 0.0, 0.0, 0.0, 0.0, 0.0, 0.0, 0.0, 0.0, 1.7184690040863836E9, 0.0, 2024-06-15 11:30:04.086
96.0, 49463.56111330523, 69110.76684126459, -18478.053030735617, -187500.02235174447, 72566.65945847744, -187500.02235174447, -187500.02235174447, -187500.02235174447, -0.24, 0.9500000000000001, 0.096, 192.0, 0.0, 0.0, 0.0, 0.0, 0.0, 0.0, 0.0, 0.0, 0.0, 1.718469004086393E9, 0.0, 2024-06-15 11:30:04.086
97.0, 49182.80085120212, 68814.8967999097, -16412.908305276433, -187500.02235174447, 72558.1210920955, -187500.02235174447, -187500.02235174447, -187500.02235174447, -0.24, 0.9500000000000001, 0.096, 192.0, 0.0, 0.0, 0.0, 0.0, 0.0, 0.0, 0.0, 0.0, 0.0, 1.718469004086403E9, 0.0, 2024-06-15 11:30:04.086
98.0, 49138.20912101378, 68775.40126745717, -14645.399408984114, -187500.02235174447, 72349.26639190513, -187500.02235174447, -187500.02235174447, -187500.02235174447, -0.24, 0.9500000000000001, 0.096, 192.0, 0.0, 0.0, 0.0, 0.0, 0.0, 0.0, 0.0, 0.0, 0.0, 1.7184690040864124E9, 0.0, 2024-06-15 11:30:04.086
99.0, 49297.9346868914, 68934.99272286806, -15966.722782459592, -187500.02235174447, 72310.30730131952, -187500.02235174447, -187500.02235174447, -187500.02235174447, -0.24, 0.9500000000000001, 0.096, 192.0, 0.0, 0.0, 0.0, 0.0, 0.0, 0.0, 0.0, 0.0, 0.0, 1.718469004086422E9, 0.0, 2024-06-15 11:30:04.086
100.0, 49486.00226473836, 69132.8727165309, -18474.499103367223, -187500.02235174447, 72516.68095787537, -187500.02235174447, -187500.02235174447, -187500.02235174447, -0.24, 0.9520000000000001, 0.094, 192.0, 248.0, 128.0, 29.0, 192.0, 2.0, 240.0, 0.0, 0.0, 0.0, 1.7184690040864315E9, 0.0, 2024-06-15 11:30:04.086
101.0, 49196.45776706431, 68824.21747734756, -16946.712666358075, -187500.02235174447, 72570.54866201266, -187500.02235174447, -187500.02235174447, -187500.02235174447, -0.24, 0.9520000000000001, 0.094, 192.0, 0.0, 0.0, 0.0, 0.0, 0.0, 0.0, 0.0, 0.0, 0.0, 1.7184690040864413E9, 0.0, 2024-06-15 11:30:04.086
102.0, 49108.70481833277, 68749.29442993336, -14730.872479781208, -187500.02235174447, 72339.83395574498, -187500.02235174447, -187500.02235174447, -187500.02235174447, -0.24, 0.9520000000000001, 0.094, 192.0, 0.0, 0.0, 0.0, 0.0, 0.0, 0.0, 0.0, 0.0, 0.0, 1.7184690040864508E9, 0.0, 2024-06-15 11:30:04.086
103.0, 49264.45177369735, 68900.34751896233, -15536.07172203919, -187500.02235174447, 72315.4705542887, -187500.02235174447, -187500.02235174447, -187500.02235174447, -0.24, 0.9520000000000001, 0.094, 192.0, 0.0, 0.0, 0.0, 0.0, 0.0, 0.0, 0.0, 0.0, 0.0, 1.7184690040864604E9, 0.0, 2024-06-15 11:30:04.086
104.0, 49489.533840362295, 69142.19339396876, -18267.343135755436, -187500.02235174447, 72475.88902424443, -187500.02235174447, -187500.02235174447, -187500.02235174447, -0.24, 0.9520000000000001, 0.094, 192.0, 0.0, 0.0, 0.0, 0.0, 0.0, 0.0, 0.0, 0.0, 0.0, 1.7184690040864704E9, 0.0, 2024-06-15 11:30:04.086
105.0, 49265.2787882422, 68898.53702766146, -17500.499486982764, -187500.02235174447, 72609.28423515371, -187500.02235174447, -187500.02235174447, -187500.02235174447, -0.24, 0.9520000000000001, 0.094, 192.0, 0.0, 0.0, 0.0, 0.0, 0.0, 0.0, 0.0, 0.0, 0.0, 1.7184690040864825E9, 0.0, 2024-06-15 11:30:04.086
106.0, 49125.31216446307, 68754.86001430274, -15013.376177951835, -187500.02235174447, 72382.61519463244, -187500.02235174447, -187500.02235174447, -187500.02235174447, -0.24, 0.9520000000000001, 0.094, 192.0, 0.0, 0.0, 0.0, 0.0, 0.0, 0.0, 0.0, 0.0, 0.0, 1.7184690040864923E9, 0.0, 2024-06-15 11:30:04.086
107.0, 49198.9611624433, 68819.7918319454, -15217.559363551065, -187500.02235174447, 72293.99052786715, -187500.02235174447, -187500.02235174447, -187500.02235174447, -0.24, 0.9520000000000001, 0.094, 192.0, 0.0, 0.0, 0.0, 0.0, 0.0, 0.0, 0.0, 0.0, 0.0, 1.718469004086502E9, 0.0, 2024-06-15 11:30:04.086
108.0, 49440.807037449726, 69094.29360560104, -17929.898849713667, -187500.02235174447, 72393.1428662709, -187500.02235174447, -187500.02235174447, -187500.02235174447, -0.24, 0.9520000000000001, 0.094, 192.0, 0.0, 0.0, 0.0, 0.0, 0.0, 0.0, 0.0, 0.0, 0.0, 1.7184690040865192E9, 0.0, 2024-06-15 11:30:04.086
109.0, 49309.579945752615, 68948.6272869858, -18007.079423317842, -187500.02235174447, 72611.02767122122, -187500.02235174447, -187500.02235174447, -187500.02235174447, -0.24, 0.9520000000000001, 0.094, 192.0, 0.0, 0.0, 0.0, 0.0, 0.0, 0.0, 0.0, 0.0, 0.0, 1.7184690040865293E9, 0.0, 2024-06-15 11:30:04.086
110.0, 49099.09356821699, 68728.86493550122, -15311.83902166355, -187500.02235174447, 72404.25168326517, -187500.02235174447, -187500.02235174447, -187500.02235174447, -0.246, 0.9580000000000001, 0.1, 192.0, 248.0, 80.0, 29.0, 240.0, 3.0, 32.0, 0.0, 0.0, 0.0, 1.71846900408654E9, 0.0, 2024-06-15 11:30:04.086
111.0, 49199.74347349924, 68823.05518663587, -14977.747497290076, -187500.02235174447, 72313.05656588753, -187500.02235174447, -187500.02235174447, -187500.02235174447, -0.246, 0.9580000000000001, 0.1, 192.0, 0.0, 0.0, 0.0, 0.0, 0.0, 0.0, 0.0, 0.0, 0.0, 1.71846900408655E9, 0.0, 2024-06-15 11:30:04.086
112.0, 49426.814845420704, 69065.41515176477, -17496.65498693645, -187500.02235174447, 72366.76780781362, -187500.02235174447, -187500.02235174447, -187500.02235174447, -0.246, 0.9580000000000001, 0.1, 192.0, 0.0, 0.0, 0.0, 0.0, 0.0, 0.0, 0.0, 0.0, 0.0, 1.7184690040865595E9, 0.0, 2024-06-15 11:30:04.086
113.0, 49370.06376624868, 69006.38419465831, -18334.890107499374, -187500.02235174447, 72595.7390780138, -187500.02235174447, -187500.02235174447, -187500.02235174447, -0.246, 0.9580000000000001, 0.1, 192.0, 0.0, 0.0, 0.0, 0.0, 0.0, 0.0, 0.0, 0.0, 0.0, 1.7184690040865898E9, 0.0, 2024-06-15 11:30:04.086
114.0, 49140.82427511505, 68780.8327413598, -15715.511526526396, -187500.02235174447, 72463.77437874966, -187500.02235174447, -187500.02235174447, -187500.02235174447, -0.246, 0.9580000000000001, 0.1, 192.0, 0.0, 0.0, 0.0, 0.0, 0.0, 0.0, 0.0, 0.0, 0.0, 1.7184690040866003E9, 0.0, 2024-06-15 11:30:04.086
115.0, 49165.34413878252, 68805.12908758273, -14821.799376225397, -187500.02235174447, 72319.35975782391, -187500.02235174447, -187500.02235174447, -187500.02235174447, -0.246, 0.9580000000000001, 0.1, 192.0, 0.0, 0.0, 0.0, 0.0, 0.0, 0.0, 0.0, 0.0, 0.0, 1.718469004086612E9, 0.0, 2024-06-15 11:30:04.086
116.0, 49364.78875455722, 69008.41820340374, -16990.253864557013, -187500.02235174447, 72332.54728705256, -187500.02235174447, -187500.02235174447, -187500.02235174447, -0.246, 0.9580000000000001, 0.1, 192.0, 0.0, 0.0, 0.0, 0.0, 0.0, 0.0, 0.0, 0.0, 0.0, 1.718469004086623E9, 0.0, 2024-06-15 11:30:04.086
117.0, 49405.558336443704, 69041.69995089769, -18606.039119486704, -187500.02235174447, 72570.83923469057, -187500.02235174447, -187500.02235174447, -187500.02235174447, -0.246, 0.9580000000000001, 0.1, 192.0, 0.0, 0.0, 0.0, 0.0, 0.0, 0.0, 0.0, 0.0, 0.0, 1.7184690040866332E9, 0.0, 2024-06-15 11:30:04.086
118.0, 49121.71353360576, 68741.4266158851, -16196.006977082132, -187500.02235174447, 72484.87442551547, -187500.02235174447, -187500.02235174447, -187500.02235174447, -0.246, 0.9580000000000001, 0.1, 192.0, 0.0, 0.0, 0.0, 0.0, 0.0, 0.0, 0.0, 0.0, 0.0, 1.7184690040866797E9, 0.0, 2024-06-15 11:30:04.086
119.0, 49127.07795227504, 68745.89696477616, -14758.946270817074, -187500.02235174447, 72304.18292333877, -187500.02235174447, -187500.02235174447, -187500.02235174447, -0.246, 0.9580000000000001, 0.1, 192.0, 0.0, 0.0, 0.0, 0.0, 0.0, 0.0, 0.0, 0.0, 0.0, 1.7184690040866904E9, 0.0, 2024-06-15 11:30:04.086
120.0, 49302.60620148256, 68928.33190302037, -16453.74494239628, -187500.02235174447, 72292.068277844, -187500.02235174447, -187500.02235174447, -187500.02235174447, -0.246, 0.9580000000000001, 0.1, 192.0, 0.0, 0.0, 0.0, 0.0, 0.0, 0.0, 0.0, 0.0, 0.0, 1.7184690040867012E9, 0.0, 2024-06-15 11:30:04.086
121.0, 49432.17926408998, 69069.72903844465, -18633.464709933367, -187500.02235174447, 72508.67903336037, -187500.02235174447, -187500.02235174447, -187500.02235174447, -0.246, 0.9540000000000001, 0.10200000000000001, 192.0, 248.0, 80.0, 29.0, 208.0, 3.0, 48.0, 0.0, 0.0, 0.0, 1.7184690045646832E9, 0.0, 2024-06-15 11:30:04.564
122.0, 49172.47434526376, 68795.07080257783, -16703.235114006417, -187500.02235174447, 72535.90345810693, -187500.02235174447, -187500.02235174447, -187500.02235174447, -0.246, 0.9540000000000001, 0.10200000000000001, 192.0, 0.0, 0.0, 0.0, 0.0, 0.0, 0.0, 0.0, 0.0, 0.0, 1.7184690045648873E9, 0.0, 2024-06-15 11:30:04.564
123.0, 49126.988545297216, 68752.64719160166, -14787.064765341851, -187500.02235174447, 72336.57060105451, -187500.02235174447, -187500.02235174447, -187500.02235174447, -0.246, 0.9540000000000001, 0.10200000000000001, 192.0, 0.0, 0.0, 0.0, 0.0, 0.0, 0.0, 0.0, 0.0, 0.0, 1.7184690045649023E9, 0.0, 2024-06-15 11:30:04.564
124.0, 49276.029977325205, 68902.58269340787, -15990.572093793404, -187500.02235174447, 72309.59204549695, -187500.02235174447, -187500.02235174447, -187500.02235174447, -0.246, 0.9540000000000001, 0.10200000000000001, 192.0, 0.0, 0.0, 0.0, 0.0, 0.0, 0.0, 0.0, 0.0, 0.0, 1.718469004564913E9, 0.0, 2024-06-15 11:30:04.564
125.0, 49455.29096785677, 69095.09826840142, -18574.880787716007, -187500.02235174447, 72483.89094875944, -187500.02235174447, -187500.02235174447, -187500.02235174447, -0.246, 0.9540000000000001, 0.10200000000000001, 192.0, 0.0, 0.0, 0.0, 0.0, 0.0, 0.0, 0.0, 0.0, 0.0, 1.7184690045649233E9, 0.0, 2024-06-15 11:30:04.564
126.0, 49207.45482533632, 68824.61980874775, -17247.70125719324, -187500.02235174447, 72569.58753700108, -187500.02235174447, -187500.02235174447, -187500.02235174447, -0.246, 0.9540000000000001, 0.10200000000000001, 192.0, 0.0, 0.0, 0.0, 0.0, 0.0, 0.0, 0.0, 0.0, 0.0, 1.7184690045649335E9, 0.0, 2024-06-15 11:30:04.564
127.0, 49116.01383876966, 68751.90958403464, -14944.085770140384, -187500.02235174447, 72357.73770305369, -187500.02235174447, -187500.02235174447, -187500.02235174447, -0.246, 0.9540000000000001, 0.10200000000000001, 192.0, 0.0, 0.0, 0.0, 0.0, 0.0, 0.0, 0.0, 0.0, 0.0, 1.7184690045649436E9, 0.0, 2024-06-15 11:30:04.564
128.0, 49229.963032002815, 68856.33693412982, -15549.259251267822, -187500.02235174447, 72304.92053090579, -187500.02235174447, -187500.02235174447, -187500.02235174447, -0.246, 0.9540000000000001, 0.10200000000000001, 192.0, 0.0, 0.0, 0.0, 0.0, 0.0, 0.0, 0.0, 0.0, 0.0, 1.7184690045649538E9, 0.0, 2024-06-15 11:30:04.564
129.0, 49459.89542721456, 69086.51519853059, -18280.709478939712, -187500.02235174447, 72444.86480294047, -187500.02235174447, -187500.02235174447, -187500.02235174447, -0.246, 0.9540000000000001, 0.10200000000000001, 192.0, 0.0, 0.0, 0.0, 0.0, 0.0, 0.0, 0.0, 0.0, 0.0, 1.718469004564964E9, 0.0, 2024-06-15 11:30:04.564
130.0, 49261.32252947361, 68868.65274532471, -17721.290018712287, -187500.02235174447, 72604.81388626265, -187500.02235174447, -187500.02235174447, -187500.02235174447, -0.246, 0.9540000000000001, 0.10200000000000001, 192.0, 0.0, 0.0, 0.0, 0.0, 0.0, 0.0, 0.0, 0.0, 0.0, 1.7184690045649738E9, 0.0, 2024-06-15 11:30:04.564
131.0, 49128.933147064825, 68749.51794737791, -15164.876301869906, -187500.02235174447, 72404.40814547637, -187500.02235174447, -187500.02235174447, -187500.02235174447, -0.244, 0.9560000000000001, 0.1, 192.0, 248.0, 96.0, 29.0, 224.0, 3.0, 32.0, 0.0, 0.0, 0.0, 1.718469004564984E9, 0.0, 2024-06-15 11:30:04.564
132.0, 49218.60834581952, 68839.77429148844, -15247.15307320989, -187500.02235174447, 72334.20131614225, -187500.02235174447, -187500.02235174447, -187500.02235174447, -0.244, 0.9560000000000001, 0.1, 192.0, 0.0, 0.0, 0.0, 0.0, 0.0, 0.0, 0.0, 0.0, 0.0, 1.718469004564994E9, 0.0, 2024-06-15 11:30:04.564
133.0, 49440.40470604953, 69079.47439902717, -17924.869707211223, -187500.02235174447, 72405.52573269913, -187500.02235174447, -187500.02235174447, -187500.02235174447, -0.244, 0.9560000000000001, 0.1, 192.0, 0.0, 0.0, 0.0, 0.0, 0.0, 0.0, 0.0, 0.0, 0.0, 1.7184690045650272E9, 0.0, 2024-06-15 11:30:04.565
134.0, 49328.26600411726, 68948.44847303015, -18222.28201893354, -187500.02235174447, 72619.45427888088, -187500.02235174447, -187500.02235174447, -187500.02235174447, -0.244, 0.9560000000000001, 0.1, 192.0, 0.0, 0.0, 0.0, 0.0, 0.0, 0.0, 0.0, 0.0, 0.0, 1.718469004565038E9, 0.0, 2024-06-15 11:30:04.565
135.0, 49098.937106005804, 68711.63174052618, -15500.532448355252, -187500.02235174447, 72411.40424149088, -187500.02235174447, -187500.02235174447, -187500.02235174447, -0.244, 0.9560000000000001, 0.1, 192.0, 0.0, 0.0, 0.0, 0.0, 0.0, 0.0, 0.0, 0.0, 0.0, 1.7184690045650485E9, 0.0, 2024-06-15 11:30:04.565
136.0, 49167.86988590597, 68774.03781104539, -14991.024433496528, -187500.02235174447, 72296.94095813525, -187500.02235174447, -187500.02235174447, -187500.02235174447, -0.244, 0.9560000000000001, 0.1, 192.0, 0.0, 0.0, 0.0, 0.0, 0.0, 0.0, 0.0, 0.0, 0.0, 1.7184690045650597E9, 0.0, 2024-06-15 11:30:04.565
137.0, 49395.79062411674, 69015.21313371815, -17422.49189883374, -187500.02235174447, 72338.40344409984, -187500.02235174447, -187500.02235174447, -187500.02235174447, -0.244, 0.9560000000000001, 0.1, 192.0, 0.0, 0.0, 0.0, 0.0, 0.0, 0.0, 0.0, 0.0, 0.0, 1.71846900456507E9, 0.0, 2024-06-15 11:30:04.565
138.0, 49372.03071976075, 68985.2841478925, -18485.74203082824, -187500.02235174447, 72573.67790623641, -187500.02235174447, -187500.02235174447, -187500.02235174447, -0.244, 0.9560000000000001, 0.1, 192.0, 0.0, 0.0, 0.0, 0.0, 0.0, 0.0, 0.0, 0.0, 0.0, 1.7184690045650804E9, 0.0, 2024-06-15 11:30:04.565
139.0, 49119.45600741578, 68747.75215956595, -15858.719153251548, -187500.02235174447, 72439.92506741584, -187500.02235174447, -187500.02235174447, -187500.02235174447, -0.244, 0.9560000000000001, 0.1, 192.0, 0.0, 0.0, 0.0, 0.0, 0.0, 0.0, 0.0, 0.0, 0.0, 1.718469004565092E9, 0.0, 2024-06-15 11:30:04.565
140.0, 49146.59102518452, 68772.49554067798, -14799.648797470189, -187500.02235174447, 72293.20821681121, -187500.02235174447, -187500.02235174447, -187500.02235174447, -0.244, 0.9560000000000001, 0.1, 192.0, 0.0, 0.0, 0.0, 0.0, 0.0, 0.0, 0.0, 0.0, 0.0, 1.7184690045651069E9, 0.0, 2024-06-15 11:30:04.565
141.0, 49341.05120194569, 68966.08399940538, -16839.267830761415, -187500.02235174447, 72299.44435351423, -187500.02235174447, -187500.02235174447, -187500.02235174447, -0.246, 0.9540000000000001, 0.098, 192.0, 248.0, 80.0, 29.0, 208.0, 3.0, 16.0, 0.0, 0.0, 0.0, 1.7184690045651371E9, 0.0, 2024-06-15 11:30:04.565
142.0, 49405.93831609945, 69022.09747101039, -18615.136279480015, -187500.02235174447, 72534.78587088417, -187500.02235174447, -187500.02235174447, -187500.02235174447, -0.246, 0.9540000000000001, 0.098, 192.0, 0.0, 0.0, 0.0, 0.0, 0.0, 0.0, 0.0, 0.0, 0.0, 1.7184690045651717E9, 0.0, 2024-06-15 11:30:04.565
143.0, 49118.6960481043, 68719.38779585216, -16274.573358842536, -187500.02235174447, 72472.75978002069, -187500.02235174447, -187500.02235174447, -187500.02235174447, -0.246, 0.9540000000000001, 0.098, 192.0, 0.0, 0.0, 0.0, 0.0, 0.0, 0.0, 0.0, 0.0, 0.0, 1.7184690045651822E9, 0.0, 2024-06-15 11:30:04.565
144.0, 49135.70572563478, 68743.39356939716, -14699.088299165762, -187500.02235174447, 72311.08961237545, -187500.02235174447, -187500.02235174447, -187500.02235174447, -0.246, 0.9540000000000001, 0.098, 192.0, 0.0, 0.0, 0.0, 0.0, 0.0, 0.0, 0.0, 0.0, 0.0, 1.7184690045651927E9, 0.0, 2024-06-15 11:30:04.565
145.0, 49306.47305327333, 68915.97138833659, -16266.07969594952, -187500.02235174447, 72305.27815881708, -187500.02235174447, -187500.02235174447, -187500.02235174447, -0.246, 0.9540000000000001, 0.098, 192.0, 0.0, 0.0, 0.0, 0.0, 0.0, 0.0, 0.0, 0.0, 0.0, 1.7184690045652032E9, 0.0, 2024-06-15 11:30:04.565
146.0, 49445.92558692999, 69066.73390468763, -18557.222909596316, -187500.02235174447, 72514.35637645202, -187500.02235174447, -187500.02235174447, -187500.02235174447, -0.246, 0.9540000000000001, 0.098, 192.0, 0.0, 0.0, 0.0, 0.0, 0.0, 0.0, 0.0, 0.0, 0.0, 1.7184690045652132E9, 0.0, 2024-06-15 11:30:04.565
147.0, 49178.285798822144, 68776.0271163019, -16750.821977951764, -187500.02235174447, 72558.03168511769, -187500.02235174447, -187500.02235174447, -187500.02235174447, -0.246, 0.9540000000000001, 0.098, 192.0, 0.0, 0.0, 0.0, 0.0, 0.0, 0.0, 0.0, 0.0, 0.0, 1.7184690045652385E9, 0.0, 2024-06-15 11:30:04.565
148.0, 49119.79128358261, 68724.28282788787, -14698.104822409729, -187500.02235174447, 72341.68915053477, -187500.02235174447, -187500.02235174447, -187500.02235174447, -0.246, 0.9540000000000001, 0.098, 192.0, 0.0, 0.0, 0.0, 0.0, 0.0, 0.0, 0.0, 0.0, 0.0, 1.7184690045652738E9, 0.0, 2024-06-15 11:30:04.565
149.0, 49249.096125256554, 68852.76065501699, -15727.44735806553, -187500.02235174447, 72300.87486515938, -187500.02235174447, -187500.02235174447, -187500.02235174447, -0.246, 0.9540000000000001, 0.098, 192.0, 0.0, 0.0, 0.0, 0.0, 0.0, 0.0, 0.0, 0.0, 0.0, 1.7184690045652835E9, 0.0, 2024-06-15 11:30:04.565
150.0, 49442.72928747288, 69059.04490459501, -18355.788988565087, -187500.02235174447, 72471.59748930902, -187500.02235174447, -187500.02235174447, -187500.02235174447, -0.246, 0.9540000000000001, 0.098, 192.0, 0.0, 0.0, 0.0, 0.0, 0.0, 0.0, 0.0, 0.0, 0.0, 1.7184690045652936E9, 0.0, 2024-06-15 11:30:04.565
151.0, 49214.45092135083, 68815.27677956544, -17224.74601563764, -187500.02235174447, 72594.80030474666, -187500.02235174447, -187500.02235174447, -187500.02235174447, -0.25, 0.9500000000000001, 0.1, 192.0, 248.0, 48.0, 29.0, 176.0, 3.0, 32.0, 0.0, 0.0, 0.0, 1.7184690045653195E9, 0.0, 2024-06-15 11:30:04.565
152.0, 49108.1907282103, 68718.2255051405, -14801.369881793247, -187500.02235174447, 72370.38879041538, -187500.02235174447, -187500.02235174447, -187500.02235174447, -0.25, 0.9500000000000001, 0.1, 192.0, 0.0, 0.0, 0.0, 0.0, 0.0, 0.0, 0.0, 0.0, 0.0, 1.7184690045653293E9, 0.0, 2024-06-15 11:30:04.565
153.0, 49240.13307572998, 68847.753864259, -15287.207399273802, -187500.02235174447, 72320.94673168025, -187500.02235174447, -187500.02235174447, -187500.02235174447, -0.25, 0.9500000000000001, 0.1, 192.0, 0.0, 0.0, 0.0, 0.0, 0.0, 0.0, 0.0, 0.0, 0.0, 1.7184690045653389E9, 0.0, 2024-06-15 11:30:04.565
154.0, 49468.009110451836, 69103.03313768306, -18034.259144575495, -187500.02235174447, 72441.1991168498, -187500.02235174447, -187500.02235174447, -187500.02235174447, -0.25, 0.9500000000000001, 0.1, 192.0, 0.0, 0.0, 0.0, 0.0, 0.0, 0.0, 0.0, 0.0, 0.0, 1.7184690045653489E9, 0.0, 2024-06-15 11:30:04.565
155.0, 49264.27295974171, 68882.08614374234, -17668.74106749786, -187500.02235174447, 72600.00826120476, -187500.02235174447, -187500.02235174447, -187500.02235174447, -0.25, 0.9500000000000001, 0.1, 192.0, 0.0, 0.0, 0.0, 0.0, 0.0, 0.0, 0.0, 0.0, 0.0, 1.7184690045653584E9, 0.0, 2024-06-15 11:30:04.565
156.0, 49082.6873877868, 68690.08465887126, -14962.727125016108, -187500.02235174447, 72368.26537469213, -187500.02235174447, -187500.02235174447, -187500.02235174447, -0.25, 0.9500000000000001, 0.1, 192.0, 0.0, 0.0, 0.0, 0.0, 0.0, 0.0, 0.0, 0.0, 0.0, 1.718469004565368E9, 0.0, 2024-06-15 11:30:04.565
157.0, 49185.17013611438, 68778.2846424919, -14855.192882441626, -187500.02235174447, 72294.2140453117, -187500.02235174447, -187500.02235174447, -187500.02235174447, -0.25, 0.9500000000000001, 0.1, 192.0, 0.0, 0.0, 0.0, 0.0, 0.0, 0.0, 0.0, 0.0, 0.0, 1.7184690045653777E9, 0.0, 2024-06-15 11:30:04.565
158.0, 49429.273537310786, 69039.64359040781, -17493.235170034786, -187500.02235174447, 72378.14484574138, -187500.02235174447, -187500.02235174447, -187500.02235174447, -0.25, 0.9500000000000001, 0.1, 192.0, 0.0, 0.0, 0.0, 0.0, 0.0, 0.0, 0.0, 0.0, 0.0, 1.7184690045653872E9, 0.0, 2024-06-15 11:30:04.565
159.0, 49324.2426901153, 68923.1239465623, -17954.821044781333, -187500.02235174447, 72587.87126396553, -187500.02235174447, -187500.02235174447, -187500.02235174447, -0.25, 0.9500000000000001, 0.1, 192.0, 0.0, 0.0, 0.0, 0.0, 0.0, 0.0, 0.0, 0.0, 0.0, 1.7184690045653968E9, 0.0, 2024-06-15 11:30:04.565
160.0, 49090.95753323526, 68689.32469955977, -15195.811116196051, -187500.02235174447, 72401.50241869717, -187500.02235174447, -187500.02235174447, -187500.02235174447, -0.25, 0.9500000000000001, 0.1, 192.0, 0.0, 0.0, 0.0, 0.0, 0.0, 0.0, 0.0, 0.0, 0.0, 1.7184690045654063E9, 0.0, 2024-06-15 11:30:04.565
161.0, 49150.23435953073, 68751.23903170097, -14497.676729878991, -187500.02235174447, 72283.61931843989, -187500.02235174447, -187500.02235174447, -187500.02235174447, -0.25, 0.9500000000000001, 0.1, 192.0, 0.0, 0.0, 0.0, 0.0, 0.0, 0.0, 0.0, 0.0, 0.0, 1.718469004565416E9, 0.0, 2024-06-15 11:30:04.565
162.0, 49389.66624613598, 69002.02560448952, -16849.795502399862, -187500.02235174447, 72338.82812724449, -187500.02235174447, -187500.02235174447, -187500.02235174447, -0.252, 0.9520000000000001, 0.1, 192.0, 248.0, 32.0, 29.0, 192.0, 3.0, 32.0, 0.0, 0.0, 0.0, 1.718469004565426E9, 0.0, 2024-06-15 11:30:04.565
163.0, 49373.52828663925, 68983.94304322518, -18099.10155524034, -187500.02235174447, 72566.4806445218, -187500.02235174447, -187500.02235174447, -187500.02235174447, -0.252, 0.9520000000000001, 0.1, 192.0, 0.0, 0.0, 0.0, 0.0, 0.0, 0.0, 0.0, 0.0, 0.0, 1.7184690045654356E9, 0.0, 2024-06-15 11:30:04.565
164.0, 49097.90892576086, 68701.23817935445, -15501.650035578017, -187500.02235174447, 72446.45177679679, -187500.02235174447, -187500.02235174447, -187500.02235174447, -0.252, 0.9520000000000001, 0.1, 192.0, 0.0, 0.0, 0.0, 0.0, 0.0, 0.0, 0.0, 0.0, 0.0, 1.7184690045654452E9, 0.0, 2024-06-15 11:30:04.565
165.0, 49107.251954943174, 68712.95049344904, -14222.124424233965, -187500.02235174447, 72283.2616905286, -187500.02235174447, -187500.02235174447, -187500.02235174447, -0.252, 0.9520000000000001, 0.1, 192.0, 0.0, 0.0, 0.0, 0.0, 0.0, 0.0, 0.0, 0.0, 0.0, 1.7184690045654545E9, 0.0, 2024-06-15 11:30:04.565
166.0, 49305.0872451171, 68919.27944651598, -16106.845868449911, -187500.02235174447, 72290.92833887677, -187500.02235174447, -187500.02235174447, -187500.02235174447, -0.252, 0.9520000000000001, 0.1, 192.0, 0.0, 0.0, 0.0, 0.0, 0.0, 0.0, 0.0, 0.0, 0.0, 1.718469004565464E9, 0.0, 2024-06-15 11:30:04.565
167.0, 49411.70506616891, 69020.75636634306, -18040.987019656543, -187500.02235174447, 72540.26204827572, -187500.02235174447, -187500.02235174447, -187500.02235174447, -0.252, 0.9520000000000001, 0.1, 192.0, 0.0, 0.0, 0.0, 0.0, 0.0, 0.0, 0.0, 0.0, 0.0, 1.7184690045654757E9, 0.0, 2024-06-15 11:30:04.565
168.0, 49141.74069663772, 68735.23518267098, -15835.071007617833, -187500.02235174447, 72523.67705388989, -187500.02235174447, -187500.02235174447, -187500.02235174447, -0.252, 0.9520000000000001, 0.1, 192.0, 0.0, 0.0, 0.0, 0.0, 0.0, 0.0, 0.0, 0.0, 0.0, 1.7184690045655065E9, 0.0, 2024-06-15 11:30:04.565
169.0, 49113.4433881573, 68710.62591202569, -14088.460992391229, -187500.02235174447, 72331.98849344117, -187500.02235174447, -187500.02235174447, -187500.02235174447, -0.252, 0.9520000000000001, 0.1, 192.0, 0.0, 0.0, 0.0, 0.0, 0.0, 0.0, 0.0, 0.0, 0.0, 1.7184690045655167E9, 0.0, 2024-06-15 11:30:04.565
170.0, 49307.680047473914, 68906.65071089873, -15535.401169705532, -187500.02235174447, 72331.76497599662, -187500.02235174447, -187500.02235174447, -187500.02235174447, -0.252, 0.9520000000000001, 0.1, 192.0, 0.0, 0.0, 0.0, 0.0, 0.0, 0.0, 0.0, 0.0, 0.0, 1.7184690045655267E9, 0.0, 2024-06-15 11:30:04.565
171.0, 49463.73992726087, 69075.02640188056, -17968.433257154615, -187500.02235174447, 72532.32717899409, -187500.02235174447, -187500.02235174447, -187500.02235174447, -0.252, 0.9520000000000001, 0.1, 192.0, 0.0, 0.0, 0.0, 0.0, 0.0, 0.0, 0.0, 0.0, 0.0, 1.7184690045655532E9, 0.0, 2024-06-15 11:30:04.565
172.0, 49157.49867647871, 68759.86680506072, -16271.824094274532, -187500.02235174447, 72556.46706300582, -187500.02235174447, -187500.02235174447, -187500.02235174447, -0.252, 0.9480000000000001, 0.096, 192.0, 248.0, 32.0, 29.0, 160.0, 3.0, 0.0, 0.0, 0.0, 0.0, 1.7184690045655637E9, 0.0, 2024-06-15 11:30:04.565
173.0, 49070.41628008083, 68679.48993199944, -14029.854718429413, -187500.02235174447, 72311.53664726457, -187500.02235174447, -187500.02235174447, -187500.02235174447, -0.252, 0.9480000000000001, 0.096, 192.0, 0.0, 0.0, 0.0, 0.0, 0.0, 0.0, 0.0, 0.0, 0.0, 1.7184690045655737E9, 0.0, 2024-06-15 11:30:04.565
174.0, 49230.74534305875, 68832.3982158182, -14889.033423546962, -187500.02235174447, 72284.82631264046, -187500.02235174447, -187500.02235174447, -187500.02235174447, -0.252, 0.9480000000000001, 0.096, 192.0, 0.0, 0.0, 0.0, 0.0, 0.0, 0.0, 0.0, 0.0, 0.0, 1.7184690045655832E9, 0.0, 2024-06-15 11:30:04.565
175.0, 49459.828371981195, 69077.7533147041, -17603.317511477177, -187500.02235174447, 72464.86961422797, -187500.02235174447, -187500.02235174447, -187500.02235174447, -0.252, 0.9480000000000001, 0.096, 192.0, 0.0, 0.0, 0.0, 0.0, 0.0, 0.0, 0.0, 0.0, 0.0, 1.7184690045655928E9, 0.0, 2024-06-15 11:30:04.565
176.0, 49218.5189388417, 68829.11250938327, -16658.375162884615, -187500.02235174447, 72579.19878711687, -187500.02235174447, -187500.02235174447, -187500.02235174447, -0.252, 0.9480000000000001, 0.096, 192.0, 0.0, 0.0, 0.0, 0.0, 0.0, 0.0, 0.0, 0.0, 0.0, 1.7184690045656068E9, 0.0, 2024-06-15 11:30:04.565
177.0, 49099.38414089491, 68710.44709807004, -14146.08378959701, -187500.02235174447, 72363.01271474514, -187500.02235174447, -187500.02235174447, -187500.02235174447, -0.252, 0.9480000000000001, 0.096, 192.0, 0.0, 0.0, 0.0, 0.0, 0.0, 0.0, 0.0, 0.0, 0.0, 1.7184690045656164E9, 0.0, 2024-06-15 11:30:04.565
178.0, 49204.4149880904, 68807.05133760588, -14459.857578260611, -187500.02235174447, 72304.00410938312, -187500.02235174447, -187500.02235174447, -187500.02235174447, -0.252, 0.9480000000000001, 0.096, 192.0, 0.0, 0.0, 0.0, 0.0, 0.0, 0.0, 0.0, 0.0, 0.0, 1.718469004565627E9, 0.0, 2024-06-15 11:30:04.565
179.0, 49423.14915933003, 69038.19072701821, -17170.92301498926, -187500.02235174447, 72403.69288965379, -187500.02235174447, -187500.02235174447, -187500.02235174447, -0.252, 0.9480000000000001, 0.096, 192.0, 0.0, 0.0, 0.0, 0.0, 0.0, 0.0, 0.0, 0.0, 0.0, 1.7184690045656376E9, 0.0, 2024-06-15 11:30:04.565
180.0, 49251.30894795763, 68844.42345433515, -17008.93992292165, -187500.02235174447, 72572.98500215828, -187500.02235174447, -187500.02235174447, -187500.02235174447, -0.252, 0.9480000000000001, 0.096, 192.0, 0.0, 0.0, 0.0, 0.0, 0.0, 0.0, 0.0, 0.0, 0.0, 1.7184690045656474E9, 0.0, 2024-06-15 11:30:04.565
181.0, 49064.962454433735, 68665.45303648151, -14270.046564346143, -187500.02235174447, 72367.79598805857, -187500.02235174447, -187500.02235174447, -187500.02235174447, -0.252, 0.9480000000000001, 0.096, 192.0, 0.0, 0.0, 0.0, 0.0, 0.0, 0.0, 0.0, 0.0, 0.0, 1.718469004565657E9, 0.0, 2024-06-15 11:30:04.565
182.0, 49145.920472850856, 68754.94942128056, -13974.265929969066, -187500.02235174447, 72286.30152777451, -187500.02235174447, -187500.02235174447, -187500.02235174447, -0.25, 0.9480000000000001, 0.096, 192.0, 248.0, 48.0, 29.0, 160.0, 3.0, 0.0, 0.0, 0.0, 0.0, 1.7184690045656664E9, 0.0, 2024-06-15 11:30:04.565
183.0, 49388.369844957575, 69015.61546511835, -16535.619382336066, -187500.02235174447, 72361.1798716998, -187500.02235174447, -187500.02235174447, -187500.02235174447, -0.25, 0.9480000000000001, 0.096, 192.0, 0.0, 0.0, 0.0, 0.0, 0.0, 0.0, 0.0, 0.0, 0.0, 1.718469004565676E9, 0.0, 2024-06-15 11:30:04.565
184.0, 49329.40594308447, 68942.79348168297, -17246.360152525922, -187500.02235174447, 72593.12392391253, -187500.02235174447, -187500.02235174447, -187500.02235174447, -0.25, 0.9480000000000001, 0.096, 192.0, 0.0, 0.0, 0.0, 0.0, 0.0, 0.0, 0.0, 0.0, 0.0, 1.7184690045656855E9, 0.0, 2024-06-15 11:30:04.565
185.0, 49096.23254492671, 68705.73087998998, -14535.317067541728, -187500.02235174447, 72438.27103832616, -187500.02235174447, -187500.02235174447, -187500.02235174447, -0.25, 0.9480000000000001, 0.096, 192.0, 0.0, 0.0, 0.0, 0.0, 0.0, 0.0, 0.0, 0.0, 0.0, 1.7184690045656953E9, 0.0, 2024-06-15 11:30:04.565
186.0, 49145.071106561554, 68750.8814037897, -13700.971150514026, -187500.02235174447, 72312.85540018743, -187500.02235174447, -187500.02235174447, -187500.02235174447, -0.25, 0.9480000000000001, 0.096, 192.0, 0.0, 0.0, 0.0, 0.0, 0.0, 0.0, 0.0, 0.0, 0.0, 1.718469004565705E9, 0.0, 2024-06-15 11:30:04.565
187.0, 49363.894684779014, 68982.91486298024, -15945.354514760318, -187500.02235174447, 72343.29847613555, -187500.02235174447, -187500.02235174447, -187500.02235174447, -0.25, 0.9480000000000001, 0.096, 192.0, 0.0, 0.0, 0.0, 0.0, 0.0, 0.0, 0.0, 0.0, 0.0, 1.7184690045657144E9, 0.0, 2024-06-15 11:30:04.565
188.0, 49379.2056297309, 69000.79625854448, -17398.955511922304, -187500.02235174447, 72572.85089169156, -187500.02235174447, -187500.02235174447, -187500.02235174447, -0.25, 0.9480000000000001, 0.096, 192.0, 0.0, 0.0, 0.0, 0.0, 0.0, 0.0, 0.0, 0.0, 0.0, 1.718469004565724E9, 0.0, 2024-06-15 11:30:04.565
189.0, 49120.50653940518, 68730.94364773556, -14917.621304705299, -187500.02235174447, 72488.11542846149, -187500.02235174447, -187500.02235174447, -187500.02235174447, -0.25, 0.9480000000000001, 0.096, 192.0, 0.0, 0.0, 0.0, 0.0, 0.0, 0.0, 0.0, 0.0, 0.0, 1.7184690045657337E9, 0.0, 2024-06-15 11:30:04.565
190.0, 49112.12463523443, 68722.62879879818, -13530.673209509041, -187500.02235174447, 72312.34131006495, -187500.02235174447, -187500.02235174447, -187500.02235174447, -0.25, 0.9480000000000001, 0.096, 192.0, 0.0, 0.0, 0.0, 0.0, 0.0, 0.0, 0.0, 0.0, 0.0, 1.7184690045657432E9, 0.0, 2024-06-15 11:30:04.565
191.0, 49300.16986133693, 68916.68664415916, -15316.666998465897, -187500.02235174447, 72306.61926348439, -187500.02235174447, -187500.02235174447, -187500.02235174447, -0.25, 0.9480000000000001, 0.096, 192.0, 0.0, 0.0, 0.0, 0.0, 0.0, 0.0, 0.0, 0.0, 0.0, 1.7184690045657532E9, 0.0, 2024-06-15 11:30:04.565
192.0, 49416.957726115914, 69048.74075040112, -17412.366558595488, -187500.02235174447, 72538.94329535286, -187500.02235174447, -187500.02235174447, -187500.02235174447, -0.24, 0.9540000000000001, 0.096, 192.0, 248.0, 128.0, 29.0, 208.0, 3.0, 0.0, 0.0, 0.0, 0.0, 1.718469004565763E9, 0.0, 2024-06-15 11:30:04.565
193.0, 49143.282967005136, 68758.45864516005, -15335.55422253063, -187500.02235174447, 72533.40006272795, -187500.02235174447, -187500.02235174447, -187500.02235174447, -0.24, 0.9540000000000001, 0.096, 192.0, 0.0, 0.0, 0.0, 0.0, 0.0, 0.0, 0.0, 0.0, 0.0, 1.7184690045657725E9, 0.0, 2024-06-15 11:30:04.565
194.0, 49099.09356821699, 68712.6152172822, -13452.41975217101, -187500.02235174447, 72325.35002533795, -187500.02235174447, -187500.02235174447, -187500.02235174447, -0.24, 0.9540000000000001, 0.096, 192.0, 0.0, 0.0, 0.0, 0.0, 0.0, 0.0, 0.0, 0.0, 0.0, 1.718469004565782E9, 0.0, 2024-06-15 11:30:04.565
195.0, 49266.575189420604, 68877.86166404029, -14721.909430254631, -187500.02235174447, 72306.08282161747, -187500.02235174447, -187500.02235174447, -187500.02235174447, -0.24, 0.9540000000000001, 0.096, 192.0, 0.0, 0.0, 0.0, 0.0, 0.0, 0.0, 0.0, 0.0, 0.0, 1.7184690045657916E9, 0.0, 2024-06-15 11:30:04.565
196.0, 49453.41342132252, 69070.22077682267, -17258.43009453179, -187500.02235174447, 72505.59449262553, -187500.02235174447, -187500.02235174447, -187500.02235174447, -0.24, 0.9540000000000001, 0.096, 192.0, 0.0, 0.0, 0.0, 0.0, 0.0, 0.0, 0.0, 0.0, 0.0, 1.7184690045658011E9, 0.0, 2024-06-15 11:30:04.565
197.0, 49182.912609924395, 68779.02225005893, -15775.056573755333, -187500.02235174447, 72567.48647302229, -187500.02235174447, -187500.02235174447, -187500.02235174447, -0.24, 0.9540000000000001, 0.096, 192.0, 0.0, 0.0, 0.0, 0.0, 0.0, 0.0, 0.0, 0.0, 0.0, 1.718469004565811E9, 0.0, 2024-06-15 11:30:04.565
198.0, 49085.101376187966, 68693.0127373949, -13454.319650449712, -187500.02235174447, 72336.19062139877, -187500.02235174447, -187500.02235174447, -187500.02235174447, -0.24, 0.9540000000000001, 0.096, 192.0, 0.0, 0.0, 0.0, 0.0, 0.0, 0.0, 0.0, 0.0, 0.0, 1.7184690045658205E9, 0.0, 2024-06-15 11:30:04.565
199.0, 49211.34402887154, 68825.33506457032, -14150.934118143812, -187500.02235174447, 72291.55418772151, -187500.02235174447, -187500.02235174447, -187500.02235174447, -0.24, 0.9540000000000001, 0.096, 192.0, 0.0, 0.0, 0.0, 0.0, 0.0, 0.0, 0.0, 0.0, 0.0, 1.7184690045658302E9, 0.0, 2024-06-15 11:30:04.565
200.0, 49425.04905760873, 69056.63091619384, -16857.61861295922, -187500.02235174447, 72433.97950339073, -187500.02235174447, -187500.02235174447, -187500.02235174447, -0.24, 0.9540000000000001, 0.096, 192.0, 0.0, 0.0, 0.0, 0.0, 0.0, 0.0, 0.0, 0.0, 0.0, 1.7184690045658395E9, 0.0, 2024-06-15 11:30:04.565
201.0, 49220.865872009505, 68830.83359370632, -16135.791377519534, -187500.02235174447, 72590.64288027798, -187500.02235174447, -187500.02235174447, -187500.02235174447, -0.24, 0.9540000000000001, 0.096, 192.0, 0.0, 0.0, 0.0, 0.0, 0.0, 0.0, 0.0, 0.0, 0.0, 1.7184690045658493E9, 0.0, 2024-06-15 11:30:04.565
202.0, 49076.47360282822, 68693.4150687951, -13544.01720094886, -187500.02235174447, 72375.75320908467, -187500.02235174447, -187500.02235174447, -187500.02235174447, -0.24, 0.9540000000000001, 0.096, 192.0, 0.0, 0.0, 0.0, 0.0, 0.0, 0.0, 0.0, 0.0, 0.0, 1.7184690045658588E9, 0.0, 2024-06-15 11:30:04.565
203.0, 49176.81058368809, 68788.96877634154, -13679.289958392377, -187500.02235174447, 72309.86026643042, -187500.02235174447, -187500.02235174447, -187500.02235174447, -0.244, 0.9520000000000001, 0.096, 192.0, 248.0, 96.0, 29.0, 192.0, 3.0, 0.0, 0.0, 0.0, 0.0, 1.7184690045658684E9, 0.0, 2024-06-15 11:30:04.565
204.0, 49409.73811265685, 69033.8991920828, -16374.150380390929, -187500.02235174447, 72404.5422559431, -187500.02235174447, -187500.02235174447, -187500.02235174447, -0.244, 0.9520000000000001, 0.096, 192.0, 0.0, 0.0, 0.0, 0.0, 0.0, 0.0, 0.0, 0.0, 0.0, 1.718469004565878E9, 0.0, 2024-06-15 11:30:04.565
205.0, 49278.958055848845, 68888.23287346755, -16479.7400211978, -187500.02235174447, 72607.49609559728, -187500.02235174447, -187500.02235174447, -187500.02235174447, -0.244, 0.9520000000000001, 0.096, 192.0, 0.0, 0.0, 0.0, 0.0, 0.0, 0.0, 0.0, 0.0, 0.0, 1.7184690045658877E9, 0.0, 2024-06-15 11:30:04.565
206.0, 49088.65530355636, 68704.85916195622, -13751.1955203051, -187500.02235174447, 72423.58594221901, -187500.02235174447, -187500.02235174447, -187500.02235174447, -0.244, 0.9520000000000001, 0.096, 192.0, 0.0, 0.0, 0.0, 0.0, 0.0, 0.0, 0.0, 0.0, 0.0, 1.7184690045658972E9, 0.0, 2024-06-15 11:30:04.565
207.0, 49160.98554861374, 68776.04946804637, -13308.429814389923, -187500.02235174447, 72319.49386829065, -187500.02235174447, -187500.02235174447, -187500.02235174447, -0.244, 0.9520000000000001, 0.096, 192.0, 0.0, 0.0, 0.0, 0.0, 0.0, 0.0, 0.0, 0.0, 0.0, 1.7184690045659068E9, 0.0, 2024-06-15 11:30:04.565
208.0, 49394.40481596051, 69024.4891076671, -15811.378158495208, -187500.02235174447, 72366.29842118006, -187500.02235174447, -187500.02235174447, -187500.02235174447, -0.244, 0.9520000000000001, 0.096, 192.0, 0.0, 0.0, 0.0, 0.0, 0.0, 0.0, 0.0, 0.0, 0.0, 1.7184690045659163E9, 0.0, 2024-06-15 11:30:04.565
209.0, 49339.62069030055, 68960.36195282482, -16730.571297475257, -187500.02235174447, 72590.9781564448, -187500.02235174447, -187500.02235174447, -187500.02235174447, -0.244, 0.9520000000000001, 0.096, 192.0, 0.0, 0.0, 0.0, 0.0, 0.0, 0.0, 0.0, 0.0, 0.0, 1.7184690045659256E9, 0.0, 2024-06-15 11:30:04.565
210.0, 49061.74380323217, 68678.19353082104, -13990.560351676984, -187500.02235174447, 72427.3410352875, -187500.02235174447, -187500.02235174447, -187500.02235174447, -0.244, 0.9520000000000001, 0.096, 192.0, 0.0, 0.0, 0.0, 0.0, 0.0, 0.0, 0.0, 0.0, 0.0, 1.7184690045659351E9, 0.0, 2024-06-15 11:30:04.565
211.0, 49100.1888036953, 68708.32368234679, -12958.870882853376, -187500.02235174447, 72285.54156846304, -187500.02235174447, -187500.02235174447, -187500.02235174447, -0.244, 0.9520000000000001, 0.096, 192.0, 0.0, 0.0, 0.0, 0.0, 0.0, 0.0, 0.0, 0.0, 0.0, 1.718469004565945E9, 0.0, 2024-06-15 11:30:04.565
212.0, 49317.87244294554, 68935.32799903488, -15071.31189957999, -187500.02235174447, 72306.75337395113, -187500.02235174447, -187500.02235174447, -187500.02235174447, -0.244, 0.9520000000000001, 0.096, 192.0, 0.0, 0.0, 0.0, 0.0, 0.0, 0.0, 0.0, 0.0, 0.0, 1.7184690045659547E9, 0.0, 2024-06-15 11:30:04.565
213.0, 49375.852868062604, 68996.39296488678, -16721.675303182044, -187500.02235174447, 72557.80816767314, -187500.02235174447, -187500.02235174447, -187500.02235174447, -0.25, 0.9500000000000001, 0.092, 192.0, 248.0, 48.0, 29.0, 176.0, 2.0, 224.0, 0.0, 0.0, 0.0, 1.7184690045659642E9, 0.0, 2024-06-15 11:30:04.565
214.0, 49102.155757207365, 68713.59869403824, -14273.511084736716, -187500.02235174447, 72483.42156212588, -187500.02235174447, -187500.02235174447, -187500.02235174447, -0.25, 0.9500000000000001, 0.092, 192.0, 0.0, 0.0, 0.0, 0.0, 0.0, 0.0, 0.0, 0.0, 0.0, 1.7184690045659735E9, 0.0, 2024-06-15 11:30:04.565
215.0, 49091.046940213084, 68709.88830445865, -12695.477926192038, -187500.02235174447, 72290.95069062122, -187500.02235174447, -187500.02235174447, -187500.02235174447, -0.25, 0.9500000000000001, 0.092, 192.0, 0.0, 0.0, 0.0, 0.0, 0.0, 0.0, 0.0, 0.0, 0.0, 1.7184690045659833E9, 0.0, 2024-06-15 11:30:04.565
216.0, 49284.09895707357, 68917.24543777054, -14323.243716149775, -187500.02235174447, 72285.22864404066, -187500.02235174447, -187500.02235174447, -187500.02235174447, -0.25, 0.9500000000000001, 0.092, 192.0, 0.0, 0.0, 0.0, 0.0, 0.0, 0.0, 0.0, 0.0, 0.0, 1.7184690045659928E9, 0.0, 2024-06-15 11:30:04.565
217.0, 49439.17536010449, 69083.83298919594, -16567.492969929335, -187500.02235174447, 72524.66053064591, -187500.02235174447, -187500.02235174447, -187500.02235174447, -0.25, 0.9500000000000001, 0.092, 192.0, 0.0, 0.0, 0.0, 0.0, 0.0, 0.0, 0.0, 0.0, 0.0, 1.7184690045660028E9, 0.0, 2024-06-15 11:30:04.566
218.0, 49155.19644679981, 68775.73654362399, -14613.347007435204, -187500.02235174447, 72538.80918488612, -187500.02235174447, -187500.02235174447, -187500.02235174447, -0.25, 0.9500000000000001, 0.092, 192.0, 0.0, 0.0, 0.0, 0.0, 0.0, 0.0, 0.0, 0.0, 0.0, 1.7184690045660124E9, 0.0, 2024-06-15 11:30:04.566
219.0, 49109.91181253336, 68720.41597609711, -12612.620009496213, -187500.02235174447, 72331.0273684296, -187500.02235174447, -187500.02235174447, -187500.02235174447, -0.25, 0.9500000000000001, 0.092, 192.0, 0.0, 0.0, 0.0, 0.0, 0.0, 0.0, 0.0, 0.0, 0.0, 1.718469004566022E9, 0.0, 2024-06-15 11:30:04.566
220.0, 49246.07863975509, 68844.8928409687, -13732.107130540267, -187500.02235174447, 72296.04688835703, -187500.02235174447, -187500.02235174447, -187500.02235174447, -0.25, 0.9500000000000001, 0.092, 192.0, 0.0, 0.0, 0.0, 0.0, 0.0, 0.0, 0.0, 0.0, 0.0, 1.7184690045660348E9, 0.0, 2024-06-15 11:30:04.566
221.0, 49444.11509562911, 69064.16345407527, -16332.732597915245, -187500.02235174447, 72482.99687898123, -187500.02235174447, -187500.02235174447, -187500.02235174447, -0.25, 0.9500000000000001, 0.092, 192.0, 0.0, 0.0, 0.0, 0.0, 0.0, 0.0, 0.0, 0.0, 0.0, 1.7184690045660443E9, 0.0, 2024-06-15 11:30:04.566
222.0, 49177.30232206611, 68790.66750892015, -15021.73573037812, -187500.02235174447, 72580.56224352864, -187500.02235174447, -187500.02235174447, -187500.02235174447, -0.25, 0.9500000000000001, 0.092, 192.0, 0.0, 0.0, 0.0, 0.0, 0.0, 0.0, 0.0, 0.0, 0.0, 1.718469004566054E9, 0.0, 2024-06-15 11:30:04.566
223.0, 49071.891495214884, 68685.52490300237, -12606.517983259915, -187500.02235174447, 72358.49766236516, -187500.02235174447, -187500.02235174447, -187500.02235174447, -0.254, 0.9540000000000001, 0.10400000000000001, 192.0, 248.0, 16.0, 29.0, 208.0, 3.0, 64.0, 0.0, 0.0, 0.0, 1.7184690045660636E9, 0.0, 2024-06-15 11:30:04.566
224.0, 49197.77651998717, 68800.74814566948, -13169.670184811377, -187500.02235174447, 72306.03811812856, -187500.02235174447, -187500.02235174447, -187500.02235174447, -0.254, 0.9540000000000001, 0.10400000000000001, 192.0, 0.0, 0.0, 0.0, 0.0, 0.0, 0.0, 0.0, 0.0, 0.0, 1.7184690045660732E9, 0.0, 2024-06-15 11:30:04.566
225.0, 49411.63801093555, 69033.67567463823, -15893.744336813013, -187500.02235174447, 72418.95913111678, -187500.02235174447, -187500.02235174447, -187500.02235174447, -0.254, 0.9540000000000001, 0.10400000000000001, 192.0, 0.0, 0.0, 0.0, 0.0, 0.0, 0.0, 0.0, 0.0, 0.0, 1.7184690045660827E9, 0.0, 2024-06-15 11:30:04.566
226.0, 49238.903729784935, 68850.92781197165, -15402.743566363284, -187500.02235174447, 72589.4805895663, -187500.02235174447, -187500.02235174447, -187500.02235174447, -0.254, 0.9540000000000001, 0.10400000000000001, 192.0, 0.0, 0.0, 0.0, 0.0, 0.0, 0.0, 0.0, 0.0, 0.0, 1.7184690045660925E9, 0.0, 2024-06-15 11:30:04.566
227.0, 49067.37644283491, 68684.47437101297, -12725.22809806205, -187500.02235174447, 72371.05934274904, -187500.02235174447, -187500.02235174447, -187500.02235174447, -0.254, 0.9540000000000001, 0.10400000000000001, 192.0, 0.0, 0.0, 0.0, 0.0, 0.0, 0.0, 0.0, 0.0, 0.0, 1.718469004566102E9, 0.0, 2024-06-15 11:30:04.566
228.0, 49179.001054644716, 68787.38180248521, -12725.563374228881, -187500.02235174447, 72291.0177458546, -187500.02235174447, -187500.02235174447, -187500.02235174447, -0.254, 0.9540000000000001, 0.10400000000000001, 192.0, 0.0, 0.0, 0.0, 0.0, 0.0, 0.0, 0.0, 0.0, 0.0, 1.7184690045661116E9, 0.0, 2024-06-15 11:30:04.566
229.0, 49437.230758336875, 69063.55995697498, -15449.749284952795, -187500.02235174447, 72398.50728494016, -187500.02235174447, -187500.02235174447, -187500.02235174447, -0.254, 0.9540000000000001, 0.10400000000000001, 192.0, 0.0, 0.0, 0.0, 0.0, 0.0, 0.0, 0.0, 0.0, 0.0, 1.718469004566121E9, 0.0, 2024-06-15 11:30:04.566
230.0, 49316.53133827822, 68938.50194674754, -15807.846582871269, -187500.02235174447, 72609.15012468697, -187500.02235174447, -187500.02235174447, -187500.02235174447, -0.254, 0.9540000000000001, 0.10400000000000001, 192.0, 0.0, 0.0, 0.0, 0.0, 0.0, 0.0, 0.0, 0.0, 0.0, 1.7184690045661306E9, 0.0, 2024-06-15 11:30:04.566
231.0, 49070.505687058656, 68688.5647402483, -13036.051456457551, -187500.02235174447, 72403.13409604241, -187500.02235174447, -187500.02235174447, -187500.02235174447, -0.254, 0.9540000000000001, 0.10400000000000001, 192.0, 0.0, 0.0, 0.0, 0.0, 0.0, 0.0, 0.0, 0.0, 0.0, 1.7184690045661404E9, 0.0, 2024-06-15 11:30:04.566
232.0, 49144.28879550562, 68754.83766255828, -12459.778780910825, -187500.02235174447, 72286.83796964145, -187500.02235174447, -187500.02235174447, -187500.02235174447, -0.254, 0.9540000000000001, 0.10400000000000001, 192.0, 0.0, 0.0, 0.0, 0.0, 0.0, 0.0, 0.0, 0.0, 0.0, 1.7184690045661497E9, 0.0, 2024-06-15 11:30:04.566
233.0, 49387.34166471263, 69018.00710177507, -14922.851612907842, -187500.02235174447, 72343.79021451357, -187500.02235174447, -187500.02235174447, -187500.02235174447, -0.252, 0.9500000000000001, 0.10200000000000001, 192.0, 248.0, 32.0, 29.0, 176.0, 3.0, 48.0, 0.0, 0.0, 0.0, 1.7184690045661592E9, 0.0, 2024-06-15 11:30:04.566
234.0, 49363.51470512327, 68991.56498808444, -16090.61850197536, -187500.02235174447, 72573.56614751412, -187500.02235174447, -187500.02235174447, -187500.02235174447, -0.252, 0.9500000000000001, 0.10200000000000001, 192.0, 0.0, 0.0, 0.0, 0.0, 0.0, 0.0, 0.0, 0.0, 0.0, 1.7184690045661688E9, 0.0, 2024-06-15 11:30:04.566
235.0, 49087.403605866864, 68704.76975497839, -13444.194310211458, -187500.02235174447, 72436.48289876973, -187500.02235174447, -187500.02235174447, -187500.02235174447, -0.252, 0.9500000000000001, 0.10200000000000001, 192.0, 0.0, 0.0, 0.0, 0.0, 0.0, 0.0, 0.0, 0.0, 0.0, 1.7184690045661783E9, 0.0, 2024-06-15 11:30:04.566
236.0, 49113.73396083522, 68732.35180763624, -12289.52554339475, -187500.02235174447, 72276.17618753627, -187500.02235174447, -187500.02235174447, -187500.02235174447, -0.252, 0.9500000000000001, 0.10200000000000001, 192.0, 0.0, 0.0, 0.0, 0.0, 0.0, 0.0, 0.0, 0.0, 0.0, 1.718469004566188E9, 0.0, 2024-06-15 11:30:04.566
237.0, 49337.72079202185, 68971.38136284129, -14346.757751316758, -187500.02235174447, 72295.13046683437, -187500.02235174447, -187500.02235174447, -187500.02235174447, -0.252, 0.9500000000000001, 0.10200000000000001, 192.0, 0.0, 0.0, 0.0, 0.0, 0.0, 0.0, 0.0, 0.0, 0.0, 1.718469004566198E9, 0.0, 2024-06-15 11:30:04.566
238.0, 49406.87708936657, 69036.49199443961, -16214.424814513304, -187500.02235174447, 72535.45642321782, -187500.02235174447, -187500.02235174447, -187500.02235174447, -0.252, 0.9500000000000001, 0.10200000000000001, 192.0, 0.0, 0.0, 0.0, 0.0, 0.0, 0.0, 0.0, 0.0, 0.0, 1.7184690045662076E9, 0.0, 2024-06-15 11:30:04.566
239.0, 49118.76310333766, 68731.03305471338, -13911.61399026084, -187500.02235174447, 72481.94634699183, -187500.02235174447, -187500.02235174447, -187500.02235174447, -0.252, 0.9500000000000001, 0.10200000000000001, 192.0, 0.0, 0.0, 0.0, 0.0, 0.0, 0.0, 0.0, 0.0, 0.0, 1.718469004566217E9, 0.0, 2024-06-15 11:30:04.566
240.0, 49111.56584162305, 68722.76290926491, -12270.280691418731, -187500.02235174447, 72302.68535646026, -187500.02235174447, -187500.02235174447, -187500.02235174447, -0.252, 0.9500000000000001, 0.10200000000000001, 192.0, 0.0, 0.0, 0.0, 0.0, 0.0, 0.0, 0.0, 0.0, 0.0, 1.7184690045662265E9, 0.0, 2024-06-15 11:30:04.566
241.0, 49283.003721595254, 68900.32516721787, -13836.73564633556, -187500.02235174447, 72292.7164784332, -187500.02235174447, -187500.02235174447, -187500.02235174447, -0.252, 0.9500000000000001, 0.10200000000000001, 192.0, 0.0, 0.0, 0.0, 0.0, 0.0, 0.0, 0.0, 0.0, 0.0, 1.7184690050448685E9, 0.0, 2024-06-15 11:30:05.044
242.0, 49443.0198601508, 69080.43552403874, -16263.50924533716, -187500.02235174447, 72513.95404505183, -187500.02235174447, -187500.02235174447, -187500.02235174447, -0.252, 0.9500000000000001, 0.10200000000000001, 192.0, 0.0, 0.0, 0.0, 0.0, 0.0, 0.0, 0.0, 0.0, 0.0, 1.7184690050450034E9, 0.0, 2024-06-15 11:30:05.045
243.0, 49149.54145545262, 68786.10775305126, -14514.798166131755, -187500.02235174447, 72537.75865289672, -187500.02235174447, -187500.02235174447, -187500.02235174447, -0.252, 0.9500000000000001, 0.10200000000000001, 192.0, 0.0, 0.0, 0.0, 0.0, 0.0, 0.0, 0.0, 0.0, 0.0, 1.71846900504505E9, 0.0, 2024-06-15 11:30:05.045
244.0, 49057.16169561884, 68691.17989434957, -12364.806218720225, -187500.02235174447, 72299.98079538117, -187500.02235174447, -187500.02235174447, -187500.02235174447, -0.252, 0.9440000000000001, 0.106, 192.0, 248.0, 32.0, 29.0, 128.0, 3.0, 80.0, 0.0, 0.0, 0.0, 1.7184690050450697E9, 0.0, 2024-06-15 11:30:05.045
245.0, 49196.07778740857, 68820.90941916817, -13344.796102618708, -187500.02235174447, 72255.053789026, -187500.02235174447, -187500.02235174447, -187500.02235174447, -0.252, 0.9440000000000001, 0.106, 192.0, 0.0, 0.0, 0.0, 0.0, 0.0, 0.0, 0.0, 0.0, 0.0, 1.718469005045088E9, 0.0, 2024-06-15 11:30:05.045
246.0, 49409.08991206765, 69060.83304415144, -16043.903356063767, -187500.02235174447, 72429.26328531066, -187500.02235174447, -187500.02235174447, -187500.02235174447, -0.252, 0.9440000000000001, 0.106, 192.0, 0.0, 0.0, 0.0, 0.0, 0.0, 0.0, 0.0, 0.0, 0.0, 1.7184690050451033E9, 0.0, 2024-06-15 11:30:05.045
247.0, 49188.500546038216, 68821.490564524, -15005.910695303763, -187500.02235174447, 72556.28824905018, -187500.02235174447, -187500.02235174447, -187500.02235174447, -0.252, 0.9440000000000001, 0.106, 192.0, 0.0, 0.0, 0.0, 0.0, 0.0, 0.0, 0.0, 0.0, 0.0, 1.7184690050451207E9, 0.0, 2024-06-15 11:30:05.045
248.0, 49075.91480921684, 68713.35282484924, -12572.543331687848, -187500.02235174447, 72338.58225805548, -187500.02235174447, -187500.02235174447, -187500.02235174447, -0.252, 0.9440000000000001, 0.106, 192.0, 0.0, 0.0, 0.0, 0.0, 0.0, 0.0, 0.0, 0.0, 0.0, 1.7184690050451412E9, 0.0, 2024-06-15 11:30:05.045
249.0, 49191.49567979523, 68814.31565455385, -13040.275936159604, -187500.02235174447, 72282.30056551703, -187500.02235174447, -187500.02235174447, -187500.02235174447, -0.252, 0.9440000000000001, 0.106, 192.0, 0.0, 0.0, 0.0, 0.0, 0.0, 0.0, 0.0, 0.0, 0.0, 1.7184690050451624E9, 0.0, 2024-06-15 11:30:05.045
250.0, 49405.5136329548, 69040.22473576364, -15828.700760448071, -187500.02235174447, 72390.01362204715, -187500.02235174447, -187500.02235174447, -187500.02235174447, -0.252, 0.9440000000000001, 0.106, 192.0, 0.0, 0.0, 0.0, 0.0, 0.0, 0.0, 0.0, 0.0, 0.0, 1.718469005045173E9, 0.0, 2024-06-15 11:30:05.045
251.0, 49244.156389731936, 68867.08812321283, -15598.723661747415, -187500.02235174447, 72570.05692363465, -187500.02235174447, -187500.02235174447, -187500.02235174447, -0.252, 0.9440000000000001, 0.106, 192.0, 0.0, 0.0, 0.0, 0.0, 0.0, 0.0, 0.0, 0.0, 0.0, 1.7184690050451827E9, 0.0, 2024-06-15 11:30:05.045
252.0, 49062.593169521475, 68691.40341179412, -12943.045847779018, -187500.02235174447, 72363.21388044523, -187500.02235174447, -187500.02235174447, -187500.02235174447, -0.252, 0.9440000000000001, 0.106, 192.0, 0.0, 0.0, 0.0, 0.0, 0.0, 0.0, 0.0, 0.0, 0.0, 1.7184690050452013E9, 0.0, 2024-06-15 11:30:05.045
253.0, 49143.37237398295, 68766.23705223048, -12813.383378193783, -187500.02235174447, 72266.45317869821, -187500.02235174447, -187500.02235174447, -187500.02235174447, -0.252, 0.9440000000000001, 0.106, 192.0, 0.0, 0.0, 0.0, 0.0, 0.0, 0.0, 0.0, 0.0, 0.0, 1.7184690050452268E9, 0.0, 2024-06-15 11:30:05.045
254.0, 49387.22990599035, 69026.41135769026, -15481.86874173507, -187500.02235174447, 72339.16340341132, -187500.02235174447, -187500.02235174447, -187500.02235174447, -0.25, 0.9500000000000001, 0.108, 192.0, 248.0, 48.0, 29.0, 176.0, 3.0, 96.0, 0.0, 0.0, 0.0, 1.7184690050452433E9, 0.0, 2024-06-15 11:30:05.045
255.0, 49308.887041674505, 68945.14041485077, -16099.492144524116, -187500.02235174447, 72572.22504284681, -187500.02235174447, -187500.02235174447, -187500.02235174447, -0.25, 0.9500000000000001, 0.108, 192.0, 0.0, 0.0, 0.0, 0.0, 0.0, 0.0, 0.0, 0.0, 0.0, 1.7184690050452588E9, 0.0, 2024-06-15 11:30:05.045
0.0, 49064.1801433778, 68714.44806032754, -13389.4101845515, -187500.02235174447, 72393.7910668601, -187500.02235174447, -187500.02235174447, -187500.02235174447, -0.25, 0.9500000000000001, 0.108, 192.0, 0.0, 0.0, 0.0, 0.0, 0.0, 0.0, 0.0, 0.0, 0.0, 1.7184690050452745E9, 0.0, 2024-06-15 11:30:05.045
1.0, 49137.2479960022, 68773.72488662302, -12716.443862491114, -187500.02235174447, 72284.08870507345, -187500.02235174447, -187500.02235174447, -187500.02235174447, -0.25, 0.9500000000000001, 0.108, 192.0, 0.0, 0.0, 0.0, 0.0, 0.0, 0.0, 0.0, 0.0, 0.0, 1.7184690050452902E9, 0.0, 2024-06-15 11:30:05.045
2.0, 49337.18435015492, 68980.32206062342, -15051.463550503679, -187500.02235174447, 72307.62509198488, -187500.02235174447, -187500.02235174447, -187500.02235174447, -0.25, 0.9500000000000001, 0.108, 192.0, 0.0, 0.0, 0.0, 0.0, 0.0, 0.0, 0.0, 0.0, 0.0, 1.7184690050453055E9, 0.0, 2024-06-15 11:30:05.045
3.0, 49354.84222827462, 68995.74476429757, -16414.49527913276, -187500.02235174447, 72547.41460650142, -187500.02235174447, -187500.02235174447, -187500.02235174447, -0.25, 0.9500000000000001, 0.108, 192.0, 0.0, 0.0, 0.0, 0.0, 0.0, 0.0, 0.0, 0.0, 0.0, 1.71846900504532E9, 0.0, 2024-06-15 11:30:05.045
4.0, 49098.870050772435, 68734.31876114832, -13889.105783594345, -187500.02235174447, 72454.9007362009, -187500.02235174447, -187500.02235174447, -187500.02235174447, -0.25, 0.9500000000000001, 0.108, 192.0, 0.0, 0.0, 0.0, 0.0, 0.0, 0.0, 0.0, 0.0, 0.0, 1.7184690050453374E9, 0.0, 2024-06-15 11:30:05.045
5.0, 49132.10709477748, 68768.06989527582, -12642.59369881078, -187500.02235174447, 72295.53279823456, -187500.02235174447, -187500.02235174447, -187500.02235174447, -0.25, 0.9500000000000001, 0.108, 192.0, 0.0, 0.0, 0.0, 0.0, 0.0, 0.0, 0.0, 0.0, 0.0, 1.7184690050453541E9, 0.0, 2024-06-15 11:30:05.045
6.0, 49315.1902336109, 68959.49023479107, -14580.445239596993, -187500.02235174447, 72297.85737965791, -187500.02235174447, -187500.02235174447, -187500.02235174447, -0.25, 0.9500000000000001, 0.108, 192.0, 0.0, 0.0, 0.0, 0.0, 0.0, 0.0, 0.0, 0.0, 0.0, 1.7184690050453737E9, 0.0, 2024-06-15 11:30:05.045
7.0, 49395.14242352753, 69050.88651786883, -16590.04588008474, -187500.02235174447, 72519.87725733248, -187500.02235174447, -187500.02235174447, -187500.02235174447, -0.25, 0.9500000000000001, 0.108, 192.0, 0.0, 0.0, 0.0, 0.0, 0.0, 0.0, 0.0, 0.0, 0.0, 1.718469005045394E9, 0.0, 2024-06-15 11:30:05.045
8.0, 49118.27136495965, 68769.18748249859, -14434.9577349374, -187500.02235174447, 72501.0123850122, -187500.02235174447, -187500.02235174447, -187500.02235174447, -0.248, 0.9540000000000001, 0.1, 192.0, 248.0, 64.0, 29.0, 208.0, 3.0, 32.0, 0.0, 0.0, 0.0, 1.7184690050454133E9, 0.0, 2024-06-15 11:30:05.045
9.0, 49095.96432399325, 68753.94359278007, -12666.822989800334, -187500.02235174447, 72302.2159698267, -187500.02235174447, -187500.02235174447, -187500.02235174447, -0.248, 0.9540000000000001, 0.1, 192.0, 0.0, 0.0, 0.0, 0.0, 0.0, 0.0, 0.0, 0.0, 0.0, 1.7184690050454328E9, 0.0, 2024-06-15 11:30:05.045
10.0, 49247.442096166866, 68905.13079227577, -14077.151009696843, -187500.02235174447, 72271.43761771174, -187500.02235174447, -187500.02235174447, -187500.02235174447, -0.248, 0.9540000000000001, 0.1, 192.0, 0.0, 0.0, 0.0, 0.0, 0.0, 0.0, 0.0, 0.0, 0.0, 1.7184690050454533E9, 0.0, 2024-06-15 11:30:05.045
11.0, 49419.63993545055, 69087.76689622008, -16589.218865539893, -187500.02235174447, 72474.92789923286, -187500.02235174447, -187500.02235174447, -187500.02235174447, -0.248, 0.9540000000000001, 0.1, 192.0, 0.0, 0.0, 0.0, 0.0, 0.0, 0.0, 0.0, 0.0, 0.0, 1.7184690050454738E9, 0.0, 2024-06-15 11:30:05.045
12.0, 49136.979775068736, 68790.0863635643, -14981.30142465847, -187500.02235174447, 72517.06093753112, -187500.02235174447, -187500.02235174447, -187500.02235174447, -0.248, 0.9540000000000001, 0.1, 192.0, 0.0, 0.0, 0.0, 0.0, 0.0, 0.0, 0.0, 0.0, 0.0, 1.7184690050454893E9, 0.0, 2024-06-15 11:30:05.045
13.0, 49059.307463086545, 68720.66184528611, -12755.961746688099, -187500.02235174447, 72297.47740000217, -187500.02235174447, -187500.02235174447, -187500.02235174447, -0.248, 0.9540000000000001, 0.1, 192.0, 0.0, 0.0, 0.0, 0.0, 0.0, 0.0, 0.0, 0.0, 0.0, 1.7184690050455055E9, 0.0, 2024-06-15 11:30:05.045
14.0, 49188.008807660204, 68850.99486720501, -13579.824695566262, -187500.02235174447, 72256.66311462679, -187500.02235174447, -187500.02235174447, -187500.02235174447, -0.248, 0.9540000000000001, 0.1, 192.0, 0.0, 0.0, 0.0, 0.0, 0.0, 0.0, 0.0, 0.0, 0.0, 1.7184690050455258E9, 0.0, 2024-06-15 11:30:05.045
15.0, 49416.51069122681, 69103.27900687206, -16309.75500461519, -187500.02235174447, 72422.35659627398, -187500.02235174447, -187500.02235174447, -187500.02235174447, -0.248, 0.9540000000000001, 0.1, 192.0, 0.0, 0.0, 0.0, 0.0, 0.0, 0.0, 0.0, 0.0, 0.0, 1.7184690050455484E9, 0.0, 2024-06-15 11:30:05.045
16.0, 49201.64337177794, 68866.43992262363, -15446.396523284498, -187500.02235174447, 72560.89270840796, -187500.02235174447, -187500.02235174447, -187500.02235174447, -0.248, 0.9540000000000001, 0.1, 192.0, 0.0, 0.0, 0.0, 0.0, 0.0, 0.0, 0.0, 0.0, 0.0, 1.7184690050455709E9, 0.0, 2024-06-15 11:30:05.045
17.0, 49059.66509099783, 68730.29544714636, -12934.730998841644, -187500.02235174447, 72337.3752638549, -187500.02235174447, -187500.02235174447, -187500.02235174447, -0.248, 0.9540000000000001, 0.1, 192.0, 0.0, 0.0, 0.0, 0.0, 0.0, 0.0, 0.0, 0.0, 0.0, 1.7184690050455868E9, 0.0, 2024-06-15 11:30:05.045
18.0, 49163.5559992261, 68824.17277385865, -13230.24341228526, -187500.02235174447, 72271.61643166738, -187500.02235174447, -187500.02235174447, -187500.02235174447, -0.246, 0.9500000000000001, 0.098, 192.0, 248.0, 80.0, 29.0, 176.0, 3.0, 16.0, 0.0, 0.0, 0.0, 1.718469005045606E9, 0.0, 2024-06-15 11:30:05.045
19.0, 49388.995693802324, 69065.57161397596, -15987.934587947679, -187500.02235174447, 72365.94079326878, -187500.02235174447, -187500.02235174447, -187500.02235174447, -0.246, 0.9500000000000001, 0.098, 192.0, 0.0, 0.0, 0.0, 0.0, 0.0, 0.0, 0.0, 0.0, 0.0, 1.7184690050456336E9, 0.0, 2024-06-15 11:30:05.045
20.0, 49251.01837527972, 68917.53601044846, -15977.697488987147, -187500.02235174447, 72555.3718275275, -187500.02235174447, -187500.02235174447, -187500.02235174447, -0.246, 0.9500000000000001, 0.098, 192.0, 0.0, 0.0, 0.0, 0.0, 0.0, 0.0, 0.0, 0.0, 0.0, 1.7184690050456512E9, 0.0, 2024-06-15 11:30:05.045
21.0, 49088.588248322994, 68754.8823660472, -13323.673704108442, -187500.02235174447, 72377.45194166327, -187500.02235174447, -187500.02235174447, -187500.02235174447, -0.246, 0.9500000000000001, 0.098, 192.0, 0.0, 0.0, 0.0, 0.0, 0.0, 0.0, 0.0, 0.0, 0.0, 1.7184690050456688E9, 0.0, 2024-06-15 11:30:05.045
22.0, 49164.517124237675, 68822.0493581354, -13050.445979886768, -187500.02235174447, 72288.29083303105, -187500.02235174447, -187500.02235174447, -187500.02235174447, -0.246, 0.9500000000000001, 0.098, 192.0, 0.0, 0.0, 0.0, 0.0, 0.0, 0.0, 0.0, 0.0, 0.0, 1.7184690050456784E9, 0.0, 2024-06-15 11:30:05.045
23.0, 49403.99371433183, 69083.11773337338, -15695.931398383547, -187500.02235174447, 72351.03217971709, -187500.02235174447, -187500.02235174447, -187500.02235174447, -0.246, 0.9500000000000001, 0.098, 192.0, 0.0, 0.0, 0.0, 0.0, 0.0, 0.0, 0.0, 0.0, 0.0, 1.7184690050456946E9, 0.0, 2024-06-15 11:30:05.045
24.0, 49336.11146642107, 69006.31713942494, -16541.430835894447, -187500.02235174447, 72570.90628992395, -187500.02235174447, -187500.02235174447, -187500.02235174447, -0.246, 0.9500000000000001, 0.098, 192.0, 0.0, 0.0, 0.0, 0.0, 0.0, 0.0, 0.0, 0.0, 0.0, 1.7184690050457096E9, 0.0, 2024-06-15 11:30:05.045
25.0, 49080.80984125255, 68752.49072939047, -13880.455658490142, -187500.02235174447, 72397.90378783987, -187500.02235174447, -187500.02235174447, -187500.02235174447, -0.246, 0.9500000000000001, 0.098, 192.0, 0.0, 0.0, 0.0, 0.0, 0.0, 0.0, 0.0, 0.0, 0.0, 1.7184690050457292E9, 0.0, 2024-06-15 11:30:05.045
26.0, 49129.491940676206, 68808.28068355093, -13069.377907440414, -187500.02235174447, 72260.79818735101, -187500.02235174447, -187500.02235174447, -187500.02235174447, -0.246, 0.9500000000000001, 0.098, 192.0, 0.0, 0.0, 0.0, 0.0, 0.0, 0.0, 0.0, 0.0, 0.0, 1.71846900504575E9, 0.0, 2024-06-15 11:30:05.045
27.0, 49340.60416705658, 69026.21019199016, -15371.227606681301, -187500.02235174447, 72285.1615888073, -187500.02235174447, -187500.02235174447, -187500.02235174447, -0.246, 0.9500000000000001, 0.098, 192.0, 0.0, 0.0, 0.0, 0.0, 0.0, 0.0, 0.0, 0.0, 0.0, 1.7184690050457675E9, 0.0, 2024-06-15 11:30:05.045
28.0, 49388.39219670203, 69061.9506313742, -16987.482248244556, -187500.02235174447, 72538.74212965276, -187500.02235174447, -187500.02235174447, -187500.02235174447, -0.246, 0.9500000000000001, 0.098, 192.0, 0.0, 0.0, 0.0, 0.0, 0.0, 0.0, 0.0, 0.0, 0.0, 1.7184690050457776E9, 0.0, 2024-06-15 11:30:05.045
29.0, 49115.41034166937, 68782.77734312741, -14597.901952016588, -187500.02235174447, 72454.76662573418, -187500.02235174447, -187500.02235174447, -187500.02235174447, -0.248, 0.9560000000000001, 0.10200000000000001, 192.0, 248.0, 64.0, 29.0, 224.0, 3.0, 48.0, 0.0, 0.0, 0.0, 1.7184690050457866E9, 0.0, 2024-06-15 11:30:05.045
30.0, 49127.56969065305, 68800.43522124711, -13277.651462274966, -187500.02235174447, 72288.46964698669, -187500.02235174447, -187500.02235174447, -187500.02235174447, -0.248, 0.9560000000000001, 0.10200000000000001, 192.0, 0.0, 0.0, 0.0, 0.0, 0.0, 0.0, 0.0, 0.0, 0.0, 1.7184690050457964E9, 0.0, 2024-06-15 11:30:05.045
31.0, 49316.19606211139, 68992.61552007384, -15139.864699824418, -187500.02235174447, 72287.53087371956, -187500.02235174447, -187500.02235174447, -187500.02235174447, -0.248, 0.9560000000000001, 0.10200000000000001, 192.0, 0.0, 0.0, 0.0, 0.0, 0.0, 0.0, 0.0, 0.0, 0.0, 1.7184690050458057E9, 0.0, 2024-06-15 11:30:05.045
32.0, 49445.54560727425, 69136.02431249908, -17406.39864282592, -187500.02235174447, 72518.75967010972, -187500.02235174447, -187500.02235174447, -187500.02235174447, -0.248, 0.9560000000000001, 0.10200000000000001, 192.0, 0.0, 0.0, 0.0, 0.0, 0.0, 0.0, 0.0, 0.0, 0.0, 1.71846900504582E9, 0.0, 2024-06-15 11:30:05.045
33.0, 49157.76689741217, 68838.07555890984, -15473.933872453437, -187500.02235174447, 72504.99099552525, -187500.02235174447, -187500.02235174447, -187500.02235174447, -0.248, 0.9560000000000001, 0.10200000000000001, 192.0, 0.0, 0.0, 0.0, 0.0, 0.0, 0.0, 0.0, 0.0, 0.0, 1.7184690050458477E9, 0.0, 2024-06-15 11:30:05.045
34.0, 49108.43659739931, 68788.85701761926, -13666.236539630478, -187500.02235174447, 72292.7611819221, -187500.02235174447, -187500.02235174447, -187500.02235174447, -0.248, 0.9560000000000001, 0.10200000000000001, 192.0, 0.0, 0.0, 0.0, 0.0, 0.0, 0.0, 0.0, 0.0, 0.0, 1.7184690050458672E9, 0.0, 2024-06-15 11:30:05.045
35.0, 49274.71122440234, 68949.83428118638, -15047.619050457366, -187500.02235174447, 72276.82438812547, -187500.02235174447, -187500.02235174447, -187500.02235174447, -0.248, 0.9560000000000001, 0.10200000000000001, 192.0, 0.0, 0.0, 0.0, 0.0, 0.0, 0.0, 0.0, 0.0, 0.0, 1.7184690050458913E9, 0.0, 2024-06-15 11:30:05.045
36.0, 49452.94403468896, 69141.63460035737, -17704.12387897061, -187500.02235174447, 72467.73063751825, -187500.02235174447, -187500.02235174447, -187500.02235174447, -0.248, 0.9560000000000001, 0.10200000000000001, 192.0, 0.0, 0.0, 0.0, 0.0, 0.0, 0.0, 0.0, 0.0, 0.0, 1.7184690050459137E9, 0.0, 2024-06-15 11:30:05.045
