%OpenBCI Raw EXG Data
%Number of channels = 8
%Sample Rate = 250 Hz
%Board = OpenBCI_GUI$BoardCytonSerial
Sample Index, EXG Channel 0, EXG Channel 1, EXG Channel 2, EXG Channel 3, EXG Channel 4, EXG Channel 5, EXG Channel 6, EXG Channel 7, Accel Channel 0, Accel Channel 1, Accel Channel 2, Other, Other, Other, Other, Other, Other, Other, Analog Channel 0, Analog Channel 1, Analog Channel 2, Timestamp, Other, Timestamp (Formatted)
147.0, 49385.5535251562, 68893.79845783692, 4184.939466111597, -187500.02235174447, 73562.00499081671, -187500.02235174447, -179354.17495419682, -187500.02235174447, 0.0, 0.0, 0.0, 192.0, 0.0, 0.0, 0.0, 0.0, 0.0, 0.0, 0.0, 0.0, 0.0, 1.7184688883043811E9, 0.0, 2024-06-15 11:28:08.304
148.0, 49431.48636001186, 68950.7283509646, 2772.2421613028246, -187500.02235174447, 73770.83733926265, -187500.02235174447, -179747.54330486577, -187500.02235174447, 0.0, 0.0, 0.0, 192.0, 0.0, 0.0, 0.0, 0.0, 0.0, 0.0, 0.0, 0.0, 0.0, 1.7184688883043969E9, 0.0, 2024-06-15 11:28:08.304
149.0, 49140.399591970396, 68682.41801052309, 4425.220719006147, -187500.02235174447, 73689.72285863434, -187500.02235174447, -179311.14784612035, -187500.02235174447, 0.0, 0.0, 0.0, 192.0, 0.0, 0.0, 0.0, 0.0, 0.0, 0.0, 0.0, 0.0, 0.0, 1.7184688883044076E9, 0.0, 2024-06-15 11:28:08.304
150.0, 49083.29088488709, 68624.97402727295, 5733.870653375466, -187500.02235174447, 73510.39481286942, -187500.02235174447, -178861.94483780203, -187500.02235174447, -0.232, 0.9460000000000001, 0.046, 192.0, 248.0, 192.0, 29.0, 144.0, 1.0, 112.0, 0.0, 0.0, 0.0, 1.7184688883044338E9, 0.0, 2024-06-15 11:28:08.304
151.0, 49354.70811780788, 68866.61873657927, 4573.14456381137, -187500.02235174447, 73536.6581126044, -187500.02235174447, -179254.2626564816, -187500.02235174447, -0.232, 0.9460000000000001, 0.046, 192.0, 0.0, 0.0, 0.0, 0.0, 0.0, 0.0, 0.0, 0.0, 0.0, 1.718468888304444E9, 0.0, 2024-06-15 11:28:08.304
152.0, 49443.601005506636, 68967.06747616142, 2813.257612378313, -187500.02235174447, 73743.14352788252, -187500.02235174447, -179732.83585701417, -187500.02235174447, -0.232, 0.9460000000000001, 0.046, 192.0, 0.0, 0.0, 0.0, 0.0, 0.0, 0.0, 0.0, 0.0, 0.0, 1.7184688883044534E9, 0.0, 2024-06-15 11:28:08.304
153.0, 49181.862077934995, 68724.21577265451, 4062.2507407964163, -187500.02235174447, 73701.7480971513, -187500.02235174447, -179408.78026590112, -187500.02235174447, -0.232, 0.9460000000000001, 0.046, 192.0, 0.0, 0.0, 0.0, 0.0, 0.0, 0.0, 0.0, 0.0, 0.0, 1.7184688883044636E9, 0.0, 2024-06-15 11:28:08.304
154.0, 49065.29773060056, 68614.22283818995, 5697.370254679949, -187500.02235174447, 73539.09445275003, -187500.02235174447, -178885.43652122456, -187500.02235174447, -0.232, 0.9460000000000001, 0.046, 192.0, 0.0, 0.0, 0.0, 0.0, 0.0, 0.0, 0.0, 0.0, 0.0, 1.7184688883044732E9, 0.0, 2024-06-15 11:28:08.304
155.0, 49302.159166593454, 68828.71017798307, 4946.9104345930145, -187500.02235174447, 73512.85350475949, -187500.02235174447, -179143.9344458502, -187500.02235174447, -0.232, 0.9460000000000001, 0.046, 192.0, 0.0, 0.0, 0.0, 0.0, 0.0, 0.0, 0.0, 0.0, 0.0, 1.7184688883044822E9, 0.0, 2024-06-15 11:28:08.304
156.0, 49467.83029649619, 68991.90026425126, 2953.1571809240795, -187500.02235174447, 73709.81707689966, -187500.02235174447, -179710.95349919243, -187500.02235174447, -0.232, 0.9460000000000001, 0.046, 192.0, 0.0, 0.0, 0.0, 0.0, 0.0, 0.0, 0.0, 0.0, 0.0, 1.7184688883044913E9, 0.0, 2024-06-15 11:28:08.304
157.0, 49258.550913161154, 68790.0416600754, 3649.43637245135, -187500.02235174447, 73750.00551343031, -187500.02235174447, -179554.64775021648, -187500.02235174447, -0.232, 0.9460000000000001, 0.046, 192.0, 0.0, 0.0, 0.0, 0.0, 0.0, 0.0, 0.0, 0.0, 0.0, 1.7184688883045006E9, 0.0, 2024-06-15 11:28:08.304
158.0, 49059.240407853176, 68605.30449215228, 5563.416250159294, -187500.02235174447, 73576.10894156802, -187500.02235174447, -178957.05151045937, -187500.02235174447, -0.232, 0.9460000000000001, 0.046, 192.0, 0.0, 0.0, 0.0, 0.0, 0.0, 0.0, 0.0, 0.0, 0.0, 1.71846888830451E9, 0.0, 2024-06-15 11:28:08.304
159.0, 49262.127192274, 68775.1777500126, 5255.990356921, -187500.02235174447, 73498.99542319721, -187500.02235174447, -179058.4613750531, -187500.02235174447, -0.232, 0.9460000000000001, 0.046, 192.0, 0.0, 0.0, 0.0, 0.0, 0.0, 0.0, 0.0, 0.0, 0.0, 1.7184688883045192E9, 0.0, 2024-06-15 11:28:08.304
160.0, 49476.88275300059, 68986.28997639299, 3190.8679832062703, -187500.02235174447, 73688.9405475784, -187500.02235174447, -179670.83211789516, -187500.02235174447, -0.23, 0.9480000000000001, 0.054, 192.0, 248.0, 208.0, 29.0, 160.0, 1.0, 176.0, 0.0, 0.0, 0.0, 1.7184688883045287E9, 0.0, 2024-06-15 11:28:08.304
161.0, 49309.0882073746, 68835.25923910848, 3304.928935161702, -187500.02235174447, 73766.03171420476, -187500.02235174447, -179653.33070198665, -187500.02235174447, -0.23, 0.9480000000000001, 0.054, 192.0, 0.0, 0.0, 0.0, 0.0, 0.0, 0.0, 0.0, 0.0, 0.0, 1.7184688883045382E9, 0.0, 2024-06-15 11:28:08.304
162.0, 49050.299710071056, 68597.25786414837, 5373.515829267005, -187500.02235174447, 73594.03504062117, -187500.02235174447, -179030.18641831714, -187500.02235174447, -0.23, 0.9480000000000001, 0.054, 192.0, 0.0, 0.0, 0.0, 0.0, 0.0, 0.0, 0.0, 0.0, 0.0, 1.7184688883045485E9, 0.0, 2024-06-15 11:28:08.304
163.0, 49188.09821463803, 68705.50736254542, 5531.587366054937, -187500.02235174447, 73473.22386184023, -187500.02235174447, -178956.246847659, -187500.02235174447, -0.23, 0.9480000000000001, 0.054, 192.0, 0.0, 0.0, 0.0, 0.0, 0.0, 0.0, 0.0, 0.0, 0.0, 1.7184688883045578E9, 0.0, 2024-06-15 11:28:08.304
164.0, 49453.48047655589, 68959.1326068798, 3543.1314758219096, -187500.02235174447, 73626.40036659245, -187500.02235174447, -179569.10932887904, -187500.02235174447, -0.23, 0.9480000000000001, 0.054, 192.0, 0.0, 0.0, 0.0, 0.0, 0.0, 0.0, 0.0, 0.0, 0.0, 1.718468888304567E9, 0.0, 2024-06-15 11:28:08.304
165.0, 49361.458344633385, 68885.32714668836, 3041.0218883778916, -187500.02235174447, 73767.14930142752, -187500.02235174447, -179711.2217201259, -187500.02235174447, -0.23, 0.9480000000000001, 0.054, 192.0, 0.0, 0.0, 0.0, 0.0, 0.0, 0.0, 0.0, 0.0, 0.0, 1.718468888304577E9, 0.0, 2024-06-15 11:28:08.304
166.0, 49085.727225032715, 68633.95942854398, 5101.62920971265, -187500.02235174447, 73630.1331079165, -187500.02235174447, -179130.8810270883, -187500.02235174447, -0.23, 0.9480000000000001, 0.054, 192.0, 0.0, 0.0, 0.0, 0.0, 0.0, 0.0, 0.0, 0.0, 0.0, 1.718468888304587E9, 0.0, 2024-06-15 11:28:08.304
167.0, 49162.86309514798, 68693.28095832837, 5687.2225626972395, -187500.02235174447, 73491.32877484904, -187500.02235174447, -178925.60260601077, -187500.02235174447, -0.23, 0.9480000000000001, 0.054, 192.0, 0.0, 0.0, 0.0, 0.0, 0.0, 0.0, 0.0, 0.0, 0.0, 1.718468888304597E9, 0.0, 2024-06-15 11:28:08.304
168.0, 49420.176377317475, 68932.33286527787, 3930.174282810007, -187500.02235174447, 73583.75323817173, -187500.02235174447, -179469.84523175302, -187500.02235174447, -0.23, 0.9480000000000001, 0.054, 192.0, 0.0, 0.0, 0.0, 0.0, 0.0, 0.0, 0.0, 0.0, 0.0, 1.7184688883046231E9, 0.0, 2024-06-15 11:28:08.304
169.0, 49399.65747590751, 68920.24057152755, 2870.6568921395415, -187500.02235174447, 73758.07449317868, -187500.02235174447, -179741.93301700748, -187500.02235174447, -0.23, 0.9480000000000001, 0.054, 192.0, 0.0, 0.0, 0.0, 0.0, 0.0, 0.0, 0.0, 0.0, 0.0, 1.7184688883046627E9, 0.0, 2024-06-15 11:28:08.304
170.0, 49129.290774976114, 68669.52105397238, 4769.236417917778, -187500.02235174447, 73671.55089039217, -187500.02235174447, -179237.43179290675, -187500.02235174447, -0.23, 0.9480000000000001, 0.054, 192.0, 0.0, 0.0, 0.0, 0.0, 0.0, 0.0, 0.0, 0.0, 0.0, 1.718468888304674E9, 0.0, 2024-06-15 11:28:08.304
171.0, 49123.32285920654, 68654.70184739851, 5804.3233518985935, -187500.02235174447, 73510.39481286942, -187500.02235174447, -178876.6746373981, -187500.02235174447, -0.22, 0.96, 0.048, 192.0, 249.0, 32.0, 30.0, 0.0, 1.0, 128.0, 0.0, 0.0, 0.0, 1.7184688883046849E9, 0.0, 2024-06-15 11:28:08.304
172.0, 49394.58362991615, 68898.60408289482, 4355.5279797945, -187500.02235174447, 73548.12455750997, -187500.02235174447, -179339.95924472323, -187500.02235174447, -0.22, 0.96, 0.048, 192.0, 0.0, 0.0, 0.0, 0.0, 0.0, 0.0, 0.0, 0.0, 0.0, 1.7184688883046942E9, 0.0, 2024-06-15 11:28:08.304
173.0, 49443.35513631763, 68961.56894702541, 2804.831004718662, -187500.02235174447, 73757.38158910055, -187500.02235174447, -179754.44999390247, -187500.02235174447, -0.22, 0.96, 0.048, 192.0, 0.0, 0.0, 0.0, 0.0, 0.0, 0.0, 0.0, 0.0, 0.0, 1.7184688883047037E9, 0.0, 2024-06-15 11:28:08.304
174.0, 49159.57738871305, 68704.45683055602, 4406.0652740079495, -187500.02235174447, 73695.40020172599, -187500.02235174447, -179332.49376207517, -187500.02235174447, -0.22, 0.96, 0.048, 192.0, 0.0, 0.0, 0.0, 0.0, 0.0, 0.0, 0.0, 0.0, 0.0, 1.7184688883047125E9, 0.0, 2024-06-15 11:28:08.304
175.0, 49108.07896948802, 68657.8087398778, 5802.28934315316, -187500.02235174447, 73540.65907486189, -187500.02235174447, -178891.80676839434, -187500.02235174447, -0.22, 0.96, 0.048, 192.0, 0.0, 0.0, 0.0, 0.0, 0.0, 0.0, 0.0, 0.0, 0.0, 1.718468888304722E9, 0.0, 2024-06-15 11:28:08.304
176.0, 49341.16296066796, 68853.47591083955, 4743.9342431943705, -187500.02235174447, 73521.12365020796, -187500.02235174447, -179229.72044106966, -187500.02235174447, -0.22, 0.96, 0.048, 192.0, 0.0, 0.0, 0.0, 0.0, 0.0, 0.0, 0.0, 0.0, 0.0, 1.718468888304732E9, 0.0, 2024-06-15 11:28:08.304
177.0, 49487.566886850225, 69004.61840684633, 2830.803731775729, -187500.02235174447, 73749.93845819694, -187500.02235174447, -179768.2857237203, -187500.02235174447, -0.22, 0.96, 0.048, 192.0, 0.0, 0.0, 0.0, 0.0, 0.0, 0.0, 0.0, 0.0, 0.0, 1.7184688883047414E9, 0.0, 2024-06-15 11:28:08.304
178.0, 49232.689944826365, 68767.35463945326, 3959.8573994466547, -187500.02235174447, 73749.3573128411, -187500.02235174447, -179490.23002269628, -187500.02235174447, -0.22, 0.96, 0.048, 192.0, 0.0, 0.0, 0.0, 0.0, 0.0, 0.0, 0.0, 0.0, 0.0, 1.718468888304751E9, 0.0, 2024-06-15 11:28:08.304
179.0, 49085.36959712143, 68631.16546048707, 5720.906641591388, -187500.02235174447, 73570.364543243, -187500.02235174447, -178933.24690261448, -187500.02235174447, -0.22, 0.96, 0.048, 192.0, 0.0, 0.0, 0.0, 0.0, 0.0, 0.0, 0.0, 0.0, 0.0, 1.7184688883047605E9, 0.0, 2024-06-15 11:28:08.304
180.0, 49311.59160275359, 68825.2009541036, 5075.544723933306, -187500.02235174447, 73512.36176638148, -187500.02235174447, -179146.0802133179, -187500.02235174447, -0.22, 0.96, 0.048, 192.0, 0.0, 0.0, 0.0, 0.0, 0.0, 0.0, 0.0, 0.0, 0.0, 1.7184688883047695E9, 0.0, 2024-06-15 11:28:08.304
181.0, 49488.43860488399, 69004.68546207971, 3005.2590972494004, -187500.02235174447, 73712.25341704529, -187500.02235174447, -179728.70078428995, -187500.02235174447, -0.22, 0.972, 0.046, 192.0, 249.0, 32.0, 30.0, 96.0, 1.0, 112.0, 0.0, 0.0, 0.0, 1.7184688883047788E9, 0.0, 2024-06-15 11:28:08.304
182.0, 49272.94543659037, 68807.40896551717, 3589.466642077761, -187500.02235174447, 73757.11336816709, -187500.02235174447, -179577.17830862742, -187500.02235174447, -0.22, 0.972, 0.046, 192.0, 0.0, 0.0, 0.0, 0.0, 0.0, 0.0, 0.0, 0.0, 0.0, 1.7184688883047876E9, 0.0, 2024-06-15 11:28:08.304
183.0, 49061.699099743266, 68613.35112015619, 5592.518221440104, -187500.02235174447, 73579.2158340473, -187500.02235174447, -178960.91836225014, -187500.02235174447, -0.22, 0.972, 0.046, 192.0, 0.0, 0.0, 0.0, 0.0, 0.0, 0.0, 0.0, 0.0, 0.0, 1.7184688883048131E9, 0.0, 2024-06-15 11:28:08.304
184.0, 49251.420706679906, 68770.12625576572, 5389.452623063639, -187500.02235174447, 73494.23450162822, -187500.02235174447, -179025.67136593716, -187500.02235174447, -0.22, 0.972, 0.046, 192.0, 0.0, 0.0, 0.0, 0.0, 0.0, 0.0, 0.0, 0.0, 0.0, 1.7184688883048232E9, 0.0, 2024-06-15 11:28:08.304
185.0, 49482.58244783669, 68994.82834277491, 3290.355597776842, -187500.02235174447, 73680.20101549638, -187500.02235174447, -179645.57464666065, -187500.02235174447, -0.22, 0.972, 0.046, 192.0, 0.0, 0.0, 0.0, 0.0, 0.0, 0.0, 0.0, 0.0, 0.0, 1.7184688883048332E9, 0.0, 2024-06-15 11:28:08.304
186.0, 49348.42727761594, 68876.49820762852, 3224.619117333784, -187500.02235174447, 73788.87519703808, -187500.02235174447, -179681.5162517448, -187500.02235174447, -0.22, 0.972, 0.046, 192.0, 0.0, 0.0, 0.0, 0.0, 0.0, 0.0, 0.0, 0.0, 0.0, 1.718468888304844E9, 0.0, 2024-06-15 11:28:08.304
187.0, 49100.09939671748, 68648.24219325092, 5308.651066857704, -187500.02235174447, 73640.59372432157, -187500.02235174447, -179092.01134348052, -187500.02235174447, -0.22, 0.972, 0.046, 192.0, 0.0, 0.0, 0.0, 0.0, 0.0, 0.0, 0.0, 0.0, 0.0, 1.718468888304854E9, 0.0, 2024-06-15 11:28:08.304
188.0, 49225.269165667196, 68746.05342698735, 5558.185941956752, -187500.02235174447, 73523.3588246535, -187500.02235174447, -179009.28753725142, -187500.02235174447, -0.22, 0.972, 0.046, 192.0, 0.0, 0.0, 0.0, 0.0, 0.0, 0.0, 0.0, 0.0, 0.0, 1.718468888304864E9, 0.0, 2024-06-15 11:28:08.304
189.0, 49446.26086309682, 68953.74583646606, 3628.0681047520766, -187500.02235174447, 73629.2837416272, -187500.02235174447, -179575.1890033709, -187500.02235174447, -0.22, 0.972, 0.046, 192.0, 0.0, 0.0, 0.0, 0.0, 0.0, 0.0, 0.0, 0.0, 0.0, 1.7184688883048916E9, 0.0, 2024-06-15 11:28:08.304
190.0, 49373.57299012816, 68897.9111788167, 2979.1299079811465, -187500.02235174447, 73769.89856599552, -187500.02235174447, -179733.75227853685, -187500.02235174447, -0.22, 0.972, 0.046, 192.0, 0.0, 0.0, 0.0, 0.0, 0.0, 0.0, 0.0, 0.0, 0.0, 1.7184688883049035E9, 0.0, 2024-06-15 11:28:08.304
191.0, 49090.89047800189, 68644.01771354886, 5048.230892208921, -187500.02235174447, 73649.82499478162, -187500.02235174447, -179154.3950622553, -187500.02235174447, -0.21, 0.978, 0.044, 192.0, 249.0, 112.0, 30.0, 144.0, 1.0, 96.0, 0.0, 0.0, 0.0, 1.7184688883049133E9, 0.0, 2024-06-15 11:28:08.304
192.0, 49155.509371222186, 68693.34801356173, 5780.339930098049, -187500.02235174447, 73504.22573139975, -187500.02235174447, -178886.6211636807, -187500.02235174447, -0.21, 0.978, 0.044, 192.0, 0.0, 0.0, 0.0, 0.0, 0.0, 0.0, 0.0, 0.0, 0.0, 1.7184688883049233E9, 0.0, 2024-06-15 11:28:08.304
193.0, 49445.67971774098, 68953.9246504217, 4037.0156213063747, -187500.02235174447, 73604.38389830398, -187500.02235174447, -179458.110565914, -187500.02235174447, -0.21, 0.978, 0.044, 192.0, 0.0, 0.0, 0.0, 0.0, 0.0, 0.0, 0.0, 0.0, 0.0, 1.7184688883049328E9, 0.0, 2024-06-15 11:28:08.304
194.0, 49433.47566526839, 68950.63894398678, 2799.511289538299, -187500.02235174447, 73796.47479015289, -187500.02235174447, -179797.23123278993, -187500.02235174447, -0.21, 0.978, 0.044, 192.0, 0.0, 0.0, 0.0, 0.0, 0.0, 0.0, 0.0, 0.0, 0.0, 1.7184688883049428E9, 0.0, 2024-06-15 11:28:08.304
195.0, 49129.82721684304, 68670.99626910643, 4672.587474893031, -187500.02235174447, 73702.61981518505, -187500.02235174447, -179289.6678196988, -187500.02235174447, -0.21, 0.978, 0.044, 192.0, 0.0, 0.0, 0.0, 0.0, 0.0, 0.0, 0.0, 0.0, 0.0, 1.7184688883049521E9, 0.0, 2024-06-15 11:28:08.304
196.0, 49115.20917596927, 68649.0021525624, 5818.0026195052415, -187500.02235174447, 73541.57549638457, -187500.02235174447, -178901.70859118804, -187500.02235174447, -0.21, 0.978, 0.044, 192.0, 0.0, 0.0, 0.0, 0.0, 0.0, 0.0, 0.0, 0.0, 0.0, 1.7184688883049686E9, 0.0, 2024-06-15 11:28:08.304
197.0, 49386.96168505689, 68893.08320201436, 4442.610376192377, -187500.02235174447, 73575.03605783416, -187500.02235174447, -179352.16329719583, -187500.02235174447, -0.21, 0.978, 0.044, 192.0, 0.0, 0.0, 0.0, 0.0, 0.0, 0.0, 0.0, 0.0, 0.0, 1.7184688883049784E9, 0.0, 2024-06-15 11:28:08.304
198.0, 49449.79243872076, 68968.14035989527, 2779.372367784067, -187500.02235174447, 73774.30185965322, -187500.02235174447, -179793.25262227686, -187500.02235174447, -0.21, 0.978, 0.044, 192.0, 0.0, 0.0, 0.0, 0.0, 0.0, 0.0, 0.0, 0.0, 0.0, 1.718468888304988E9, 0.0, 2024-06-15 11:28:08.304
199.0, 49177.86111567749, 68713.79985973834, 4273.497077643523, -187500.02235174447, 73726.62558873005, -187500.02235174447, -179406.0980565665, -187500.02235174447, -0.21, 0.978, 0.044, 192.0, 0.0, 0.0, 0.0, 0.0, 0.0, 0.0, 0.0, 0.0, 0.0, 1.718468888304997E9, 0.0, 2024-06-15 11:28:08.304
200.0, 49075.46777432773, 68612.56880910025, 5819.7237038283, -187500.02235174447, 73542.22369697377, -187500.02235174447, -178886.46470146952, -187500.02235174447, -0.21, 0.978, 0.044, 192.0, 0.0, 0.0, 0.0, 0.0, 0.0, 0.0, 0.0, 0.0, 0.0, 1.7184688883050058E9, 0.0, 2024-06-15 11:28:08.305
201.0, 49352.80821952918, 68858.92973648665, 4816.957392329859, -187500.02235174447, 73538.37919692746, -187500.02235174447, -179247.3559674449, -187500.02235174447, -0.21, 0.972, 0.044, 192.0, 249.0, 112.0, 30.0, 96.0, 1.0, 96.0, 0.0, 0.0, 0.0, 1.7184688883050148E9, 0.0, 2024-06-15 11:28:08.305
202.0, 49474.53581983278, 68986.15586592625, 2856.575293132698, -187500.02235174447, 73750.87723146407, -187500.02235174447, -179791.48683446491, -187500.02235174447, -0.21, 0.972, 0.044, 192.0, 0.0, 0.0, 0.0, 0.0, 0.0, 0.0, 0.0, 0.0, 0.0, 1.7184688883050237E9, 0.0, 2024-06-15 11:28:08.305
203.0, 49238.09906698455, 68769.85803483224, 3840.4767323108595, -187500.02235174447, 73757.47099607838, -187500.02235174447, -179548.881000147, -187500.02235174447, -0.21, 0.972, 0.044, 192.0, 0.0, 0.0, 0.0, 0.0, 0.0, 0.0, 0.0, 0.0, 0.0, 1.7184688883050327E9, 0.0, 2024-06-15 11:28:08.305
204.0, 49068.09169865748, 68613.17230620055, 5663.909693230355, -187500.02235174447, 73581.02632534818, -187500.02235174447, -178971.13310946623, -187500.02235174447, -0.21, 0.972, 0.044, 192.0, 0.0, 0.0, 0.0, 0.0, 0.0, 0.0, 0.0, 0.0, 0.0, 1.718468888305042E9, 0.0, 2024-06-15 11:28:08.305
205.0, 49281.79672739467, 68791.96391009855, 5140.297727620331, -187500.02235174447, 73514.73105129374, -187500.02235174447, -179143.2415417721, -187500.02235174447, -0.21, 0.972, 0.044, 192.0, 0.0, 0.0, 0.0, 0.0, 0.0, 0.0, 0.0, 0.0, 0.0, 1.718468888305051E9, 0.0, 2024-06-15 11:28:08.305
206.0, 49454.06162191172, 68958.1267783793, 3164.358814282276, -187500.02235174447, 73711.49345773381, -187500.02235174447, -179702.70570548842, -187500.02235174447, -0.21, 0.972, 0.044, 192.0, 0.0, 0.0, 0.0, 0.0, 0.0, 0.0, 0.0, 0.0, 0.0, 1.718468888305062E9, 0.0, 2024-06-15 11:28:08.305
207.0, 49226.29734591214, 68747.10395897675, 3956.7952104562773, -187500.02235174447, 73738.76258596928, -187500.02235174447, -179477.98126673477, -187500.02235174447, -0.21, 0.972, 0.044, 192.0, 0.0, 0.0, 0.0, 0.0, 0.0, 0.0, 0.0, 0.0, 0.0, 1.718468888305088E9, 0.0, 2024-06-15 11:28:08.305
208.0, 49220.4188371204, 68786.95711934056, 4524.954202765728, -187500.02235174447, 73497.54255980761, -187500.02235174447, -179268.72423514418, -187500.02235174447, -0.21, 0.972, 0.044, 192.0, 0.0, 0.0, 0.0, 0.0, 0.0, 0.0, 0.0, 0.0, 0.0, 1.718468888305098E9, 0.0, 2024-06-15 11:28:08.305
209.0, 49410.00633359031, 68933.58456296737, 3326.476016816618, -187500.02235174447, 73615.98445367628, -187500.02235174447, -179615.86917827956, -187500.02235174447, -0.21, 0.972, 0.044, 192.0, 0.0, 0.0, 0.0, 0.0, 0.0, 0.0, 0.0, 0.0, 0.0, 1.718468888305107E9, 0.0, 2024-06-15 11:28:08.305
210.0, 49319.81704471315, 68800.36816601374, 3214.694942795628, -187500.02235174447, 73875.62231726912, -187500.02235174447, -179702.4151328105, -187500.02235174447, -0.21, 0.972, 0.044, 192.0, 0.0, 0.0, 0.0, 0.0, 0.0, 0.0, 0.0, 0.0, 0.0, 1.718468888305132E9, 0.0, 2024-06-15 11:28:08.305
211.0, 49091.538678591096, 68602.17524792854, 5193.025492790401, -187500.02235174447, 73707.09016407611, -187500.02235174447, -179165.92856239423, -187500.02235174447, -0.21, 0.972, 0.044, 192.0, 0.0, 0.0, 0.0, 0.0, 0.0, 0.0, 0.0, 0.0, 0.0, 1.718468888305143E9, 0.0, 2024-06-15 11:28:08.305
212.0, 49179.91747616738, 68762.19138648408, 5295.195316695609, -187500.02235174447, 73408.60496861994, -187500.02235174447, -179091.13962544675, -187500.02235174447, -0.214, 0.962, 0.048, 192.0, 249.0, 80.0, 30.0, 16.0, 1.0, 128.0, 0.0, 0.0, 0.0, 1.718468888305152E9, 0.0, 2024-06-15 11:28:08.305
213.0, 49377.41749017448, 68922.1181180618, 3876.2618751838063, -187500.02235174447, 73558.5628221706, -187500.02235174447, -179440.83266745004, -187500.02235174447, -0.214, 0.962, 0.048, 192.0, 0.0, 0.0, 0.0, 0.0, 0.0, 0.0, 0.0, 0.0, 0.0, 1.7184688883051608E9, 0.0, 2024-06-15 11:28:08.305
214.0, 49246.592729877564, 68716.10208941724, 4249.804228520898, -187500.02235174447, 73876.941070192, -187500.02235174447, -179394.22928026074, -187500.02235174447, -0.214, 0.962, 0.048, 192.0, 0.0, 0.0, 0.0, 0.0, 0.0, 0.0, 0.0, 0.0, 0.0, 1.7184688883051696E9, 0.0, 2024-06-15 11:28:08.305
215.0, 49128.62022264245, 68634.8982018111, 5844.601195407056, -187500.02235174447, 73661.0902739871, -187500.02235174447, -178967.19920244208, -187500.02235174447, -0.214, 0.962, 0.048, 192.0, 0.0, 0.0, 0.0, 0.0, 0.0, 0.0, 0.0, 0.0, 0.0, 1.7184688883051786E9, 0.0, 2024-06-15 11:28:08.305
216.0, 49349.701327049894, 68931.97523736658, 4545.4731041756995, -187500.02235174447, 73421.70309087075, -187500.02235174447, -179333.90192197586, -187500.02235174447, -0.214, 0.962, 0.048, 192.0, 0.0, 0.0, 0.0, 0.0, 0.0, 0.0, 0.0, 0.0, 0.0, 1.7184688883051877E9, 0.0, 2024-06-15 11:28:08.305
217.0, 49402.51849919779, 68943.93342065018, 3272.429498723686, -187500.02235174447, 73654.31769541714, -187500.02235174447, -179614.3939631455, -187500.02235174447, -0.214, 0.962, 0.048, 192.0, 0.0, 0.0, 0.0, 0.0, 0.0, 0.0, 0.0, 0.0, 0.0, 1.7184688883051968E9, 0.0, 2024-06-15 11:28:08.305
218.0, 49234.65689833843, 68703.87568520018, 4180.022082331429, -187500.02235174447, 73883.80305573977, -187500.02235174447, -179440.89972268342, -187500.02235174447, -0.214, 0.962, 0.048, 192.0, 0.0, 0.0, 0.0, 0.0, 0.0, 0.0, 0.0, 0.0, 0.0, 1.7184688883052058E9, 0.0, 2024-06-15 11:28:08.305
219.0, 49086.95657097776, 68585.83612273171, 5900.16763212295, -187500.02235174447, 73701.5022279623, -187500.02235174447, -178951.57533306783, -187500.02235174447, -0.214, 0.962, 0.048, 192.0, 0.0, 0.0, 0.0, 0.0, 0.0, 0.0, 0.0, 0.0, 0.0, 1.7184688883052306E9, 0.0, 2024-06-15 11:28:08.305
220.0, 49329.58475704012, 68913.7138621466, 4854.553026503686, -187500.02235174447, 73396.6244335919, -187500.02235174447, -179271.0041130786, -187500.02235174447, -0.214, 0.962, 0.048, 192.0, 0.0, 0.0, 0.0, 0.0, 0.0, 0.0, 0.0, 0.0, 0.0, 1.7184688883052404E9, 0.0, 2024-06-15 11:28:08.305
221.0, 49414.163758058996, 68971.98485994159, 3289.8862111432804, -187500.02235174447, 73608.94365417286, -187500.02235174447, -179619.0431259922, -187500.02235174447, -0.214, 0.962, 0.048, 192.0, 0.0, 0.0, 0.0, 0.0, 0.0, 0.0, 0.0, 0.0, 0.0, 1.7184688883052528E9, 0.0, 2024-06-15 11:28:08.305
222.0, 49252.471238669306, 68727.47912734498, 3917.076160559197, -187500.02235174447, 73837.69140692847, -187500.02235174447, -179497.1814152219, -187500.02235174447, -0.216, 0.9540000000000001, 0.046, 192.0, 249.0, 64.0, 29.0, 208.0, 1.0, 112.0, 0.0, 0.0, 0.0, 1.718468888305278E9, 0.0, 2024-06-15 11:28:08.305
223.0, 49074.79722199407, 68561.09274161968, 5794.7568052717215, -187500.02235174447, 73759.907336224, -187500.02235174447, -178982.2419264605, -187500.02235174447, -0.216, 0.9540000000000001, 0.046, 192.0, 0.0, 0.0, 0.0, 0.0, 0.0, 0.0, 0.0, 0.0, 0.0, 1.718468888305287E9, 0.0, 2024-06-15 11:28:08.305
224.0, 49298.694646202886, 68875.96176576159, 5208.8281761203025, -187500.02235174447, 73410.63897736538, -187500.02235174447, -179197.42217033176, -187500.02235174447, -0.216, 0.9540000000000001, 0.046, 192.0, 0.0, 0.0, 0.0, 0.0, 0.0, 0.0, 0.0, 0.0, 0.0, 1.718468888305296E9, 0.0, 2024-06-15 11:28:08.305
225.0, 49427.59715647664, 69006.69711908068, 3414.318372525975, -187500.02235174447, 73569.38106648697, -187500.02235174447, -179610.4377043769, -187500.02235174447, -0.216, 0.9540000000000001, 0.046, 192.0, 0.0, 0.0, 0.0, 0.0, 0.0, 0.0, 0.0, 0.0, 0.0, 1.7184688883053048E9, 0.0, 2024-06-15 11:28:08.305
226.0, 49324.01917267075, 68816.75199469949, 3569.8865139349123, -187500.02235174447, 73821.86637185412, -187500.02235174447, -179622.06061149368, -187500.02235174447, -0.216, 0.9540000000000001, 0.046, 192.0, 0.0, 0.0, 0.0, 0.0, 0.0, 0.0, 0.0, 0.0, 0.0, 1.7184688883053138E9, 0.0, 2024-06-15 11:28:08.305
227.0, 49067.10822190145, 68548.19578506897, 5462.945158832688, -187500.02235174447, 73817.30661598523, -187500.02235174447, -179089.91027950172, -187500.02235174447, -0.216, 0.9540000000000001, 0.046, 192.0, 0.0, 0.0, 0.0, 0.0, 0.0, 0.0, 0.0, 0.0, 0.0, 1.7184688883053226E9, 0.0, 2024-06-15 11:28:08.305
228.0, 49215.59086031805, 68779.7822093704, 5542.673831304769, -187500.02235174447, 73424.69822462776, -187500.02235174447, -179099.09684647285, -187500.02235174447, -0.216, 0.9540000000000001, 0.046, 192.0, 0.0, 0.0, 0.0, 0.0, 0.0, 0.0, 0.0, 0.0, 0.0, 1.718468888305332E9, 0.0, 2024-06-15 11:28:08.305
229.0, 49420.511653484304, 69010.36280517135, 3636.6064711340036, -187500.02235174447, 73520.87778101895, -187500.02235174447, -179583.48150056382, -187500.02235174447, -0.216, 0.9540000000000001, 0.046, 192.0, 0.0, 0.0, 0.0, 0.0, 0.0, 0.0, 0.0, 0.0, 0.0, 1.7184688883053408E9, 0.0, 2024-06-15 11:28:08.305
230.0, 49332.66929777495, 68836.89091645372, 3379.9637412981683, -187500.02235174447, 73763.61772580359, -187500.02235174447, -179662.18199279095, -187500.02235174447, -0.216, 0.9540000000000001, 0.046, 192.0, 0.0, 0.0, 0.0, 0.0, 0.0, 0.0, 0.0, 0.0, 0.0, 1.7184688883053503E9, 0.0, 2024-06-15 11:28:08.305
231.0, 49085.727225032715, 68553.60490722716, 5125.456169302007, -187500.02235174447, 73846.65445645506, -187500.02235174447, -179191.40955107327, -187500.02235174447, -0.216, 0.9540000000000001, 0.046, 192.0, 0.0, 0.0, 0.0, 0.0, 0.0, 0.0, 0.0, 0.0, 0.0, 1.718468888305359E9, 0.0, 2024-06-15 11:28:08.305
232.0, 49164.181848070846, 68707.09433640174, 5733.870653375466, -187500.02235174447, 73478.52122527614, -187500.02235174447, -179052.24759009454, -187500.02235174447, -0.22, 0.9500000000000001, 0.044, 192.0, 249.0, 32.0, 29.0, 176.0, 1.0, 96.0, 0.0, 0.0, 0.0, 1.718468888305368E9, 0.0, 2024-06-15 11:28:08.305
233.0, 49412.0626940802, 69007.30061618098, 3877.714738573401, -187500.02235174447, 73474.60966999647, -187500.02235174447, -179545.4835349898, -187500.02235174447, -0.22, 0.9500000000000001, 0.044, 192.0, 0.0, 0.0, 0.0, 0.0, 0.0, 0.0, 0.0, 0.0, 0.0, 1.7184688883053784E9, 0.0, 2024-06-15 11:28:08.305
234.0, 49383.608923388594, 68900.61573989579, 3187.3811110712422, -187500.02235174447, 73738.47201329136, -187500.02235174447, -179729.19252266796, -187500.02235174447, -0.22, 0.9500000000000001, 0.044, 192.0, 0.0, 0.0, 0.0, 0.0, 0.0, 0.0, 0.0, 0.0, 0.0, 1.7184688883053873E9, 0.0, 2024-06-15 11:28:08.305
235.0, 49138.723211136254, 68600.9906054724, 4710.607792211508, -187500.02235174447, 73877.94689869248, -187500.02235174447, -179349.078756461, -187500.02235174447, -0.22, 0.9500000000000001, 0.044, 192.0, 0.0, 0.0, 0.0, 0.0, 0.0, 0.0, 0.0, 0.0, 0.0, 1.7184688883053963E9, 0.0, 2024-06-15 11:28:08.305
236.0, 49127.41322844187, 68648.91274558459, 5814.5380991146685, -187500.02235174447, 73542.22369697377, -187500.02235174447, -179045.11738361328, -187500.02235174447, -0.22, 0.9500000000000001, 0.044, 192.0, 0.0, 0.0, 0.0, 0.0, 0.0, 0.0, 0.0, 0.0, 0.0, 1.7184688883054054E9, 0.0, 2024-06-15 11:28:08.305
237.0, 49385.91115306749, 68978.95860421164, 4159.2349599879935, -187500.02235174447, 73417.59036989098, -187500.02235174447, -179511.97827005127, -187500.02235174447, -0.22, 0.9500000000000001, 0.044, 192.0, 0.0, 0.0, 0.0, 0.0, 0.0, 0.0, 0.0, 0.0, 0.0, 1.718468888305415E9, 0.0, 2024-06-15 11:28:08.305
238.0, 49396.14825202802, 68927.48253673107, 3096.4542146270533, -187500.02235174447, 73677.22823348382, -187500.02235174447, -179760.5296683943, -187500.02235174447, -0.22, 0.9500000000000001, 0.044, 192.0, 0.0, 0.0, 0.0, 0.0, 0.0, 0.0, 0.0, 0.0, 0.0, 1.718468888305424E9, 0.0, 2024-06-15 11:28:08.305
239.0, 49153.542417710116, 68618.49202138091, 4322.3579910228245, -187500.02235174447, 73849.13550008959, -187500.02235174447, -179457.41766183588, -187500.02235174447, -0.22, 0.9500000000000001, 0.044, 192.0, 0.0, 0.0, 0.0, 0.0, 0.0, 0.0, 0.0, 0.0, 0.0, 1.7184688883054328E9, 0.0, 2024-06-15 11:28:08.305
240.0, 49087.87299250043, 68597.25786414837, 5803.317523398105, -187500.02235174447, 73611.73762222978, -187500.02235174447, -179044.02214813497, -187500.02235174447, -0.22, 0.9500000000000001, 0.044, 192.0, 0.0, 0.0, 0.0, 0.0, 0.0, 0.0, 0.0, 0.0, 0.0, 1.718468888305442E9, 0.0, 2024-06-15 11:28:08.305
241.0, 49342.88404499103, 68933.42810075618, 4528.4187231563, -187500.02235174447, 73389.069543966, -187500.02235174447, -179425.6558329649, -187500.02235174447, -0.22, 0.9500000000000001, 0.044, 192.0, 0.0, 0.0, 0.0, 0.0, 0.0, 0.0, 0.0, 0.0, 0.0, 1.7184688883054676E9, 0.0, 2024-06-15 11:28:08.305
242.0, 49400.618600919086, 68952.31532482091, 3145.3151280063544, -187500.02235174447, 73615.58212227609, -187500.02235174447, -179734.53458959277, -187500.02235174447, -0.224, 0.964, 0.044, 192.0, 249.0, 0.0, 30.0, 32.0, 1.0, 96.0, 0.0, 0.0, 0.0, 1.7184688883054795E9, 0.0, 2024-06-15 11:28:08.305
243.0, 49214.5179765842, 68689.25764432641, 3935.695163690468, -187500.02235174447, 73825.19678177795, -187500.02235174447, -179565.37658755502, -187500.02235174447, -0.224, 0.964, 0.044, 192.0, 0.0, 0.0, 0.0, 0.0, 0.0, 0.0, 0.0, 0.0, 0.0, 1.7184688883054893E9, 0.0, 2024-06-15 11:28:08.305
244.0, 49061.0285474096, 68560.26572707483, 5647.4811610557035, -187500.02235174447, 73686.07952428813, -187500.02235174447, -179065.88215421228, -187500.02235174447, -0.224, 0.964, 0.044, 192.0, 0.0, 0.0, 0.0, 0.0, 0.0, 0.0, 0.0, 0.0, 0.0, 1.718468888305499E9, 0.0, 2024-06-15 11:28:08.305
245.0, 49279.382738993496, 68863.57889933336, 4924.625745371073, -187500.02235174447, 73381.58170957348, -187500.02235174447, -179312.35484032094, -187500.02235174447, -0.224, 0.964, 0.044, 192.0, 0.0, 0.0, 0.0, 0.0, 0.0, 0.0, 0.0, 0.0, 0.0, 1.7184688883055081E9, 0.0, 2024-06-15 11:28:08.305
246.0, 49384.68180712245, 68953.16469111021, 3332.3768773528195, -187500.02235174447, 73552.43844418984, -187500.02235174447, -179663.97013234737, -187500.02235174447, -0.224, 0.964, 0.044, 192.0, 0.0, 0.0, 0.0, 0.0, 0.0, 0.0, 0.0, 0.0, 0.0, 1.7184688883055334E9, 0.0, 2024-06-15 11:28:08.305
247.0, 49302.82971892712, 68789.01347983045, 3453.6127392784047, -187500.02235174447, 73787.55644411522, -187500.02235174447, -179696.0225338963, -187500.02235174447, -0.224, 0.964, 0.044, 192.0, 0.0, 0.0, 0.0, 0.0, 0.0, 0.0, 0.0, 0.0, 0.0, 1.7184688883055427E9, 0.0, 2024-06-15 11:28:08.305
248.0, 49101.14992870688, 68586.99841344338, 5018.771293016826, -187500.02235174447, 73793.25613895133, -187500.02235174447, -179250.64167387984, -187500.02235174447, -0.224, 0.964, 0.044, 192.0, 0.0, 0.0, 0.0, 0.0, 0.0, 0.0, 0.0, 0.0, 0.0, 1.7184688883055515E9, 0.0, 2024-06-15 11:28:08.305
249.0, 49170.23917081823, 68728.59671456776, 5615.96520137372, -187500.02235174447, 73463.41144602436, -187500.02235174447, -179129.4728671876, -187500.02235174447, -0.224, 0.964, 0.044, 192.0, 0.0, 0.0, 0.0, 0.0, 0.0, 0.0, 0.0, 0.0, 0.0, 1.7184688883055604E9, 0.0, 2024-06-15 11:28:08.305
250.0, 49339.10660017808, 68914.67498715819, 4330.158749837727, -187500.02235174447, 73475.79431245259, -187500.02235174447, -179413.8541118925, -187500.02235174447, -0.224, 0.964, 0.044, 192.0, 0.0, 0.0, 0.0, 0.0, 0.0, 0.0, 0.0, 0.0, 0.0, 1.7184688883055696E9, 0.0, 2024-06-15 11:28:08.305
251.0, 49396.93056308396, 68906.762469621, 3297.485804258085, -187500.02235174447, 73668.42164616843, -187500.02235174447, -179728.29845288975, -187500.02235174447, -0.224, 0.964, 0.044, 192.0, 0.0, 0.0, 0.0, 0.0, 0.0, 0.0, 0.0, 0.0, 0.0, 1.7184688883055792E9, 0.0, 2024-06-15 11:28:08.305
252.0, 49274.66652091343, 68773.12138952273, 3454.5291608010725, -187500.02235174447, 73827.70017715695, -187500.02235174447, -179686.4112837805, -187500.02235174447, -0.224, 0.964, 0.044, 192.0, 0.0, 0.0, 0.0, 0.0, 0.0, 0.0, 0.0, 0.0, 0.0, 1.7184688883055892E9, 0.0, 2024-06-15 11:28:08.305
253.0, 49135.57161516805, 68683.9155774016, 4928.045562272735, -187500.02235174447, 73623.11466015753, -187500.02235174447, -179318.00983166814, -187500.02235174447, -0.22, 0.962, 0.04, 192.0, 249.0, 32.0, 30.0, 16.0, 1.0, 64.0, 0.0, 0.0, 0.0, 1.718468888305598E9, 0.0, 2024-06-15 11:28:08.305
254.0, 49221.2682034097, 68801.55280846987, 4829.653183180473, -187500.02235174447, 73439.65154166837, -187500.02235174447, -179280.1236248164, -187500.02235174447, -0.22, 0.962, 0.04, 192.0, 0.0, 0.0, 0.0, 0.0, 0.0, 0.0, 0.0, 0.0, 0.0, 1.7184688883056087E9, 0.0, 2024-06-15 11:28:08.305
255.0, 49387.16285075699, 68909.89171384474, 3531.7767896386135, -187500.02235174447, 73585.98841261725, -187500.02235174447, -179642.62421639255, -187500.02235174447, -0.22, 0.962, 0.04, 192.0, 0.0, 0.0, 0.0, 0.0, 0.0, 0.0, 0.0, 0.0, 0.0, 1.7184688883056183E9, 0.0, 2024-06-15 11:28:08.305
0.0, 49316.084303389114, 68804.99497711599, 3074.1918771495675, -187500.02235174447, 73804.5214181568, -187500.02235174447, -179784.62484891713, -187500.02235174447, -0.22, 0.962, 0.04, 192.0, 0.0, 0.0, 0.0, 0.0, 0.0, 0.0, 0.0, 0.0, 0.0, 1.7184688883056278E9, 0.0, 2024-06-15 11:28:08.305
1.0, 49117.08672250351, 68633.26652446587, 4734.07712388958, -187500.02235174447, 73700.92108260645, -187500.02235174447, -179351.7833175401, -187500.02235174447, -0.22, 0.962, 0.04, 192.0, 0.0, 0.0, 0.0, 0.0, 0.0, 0.0, 0.0, 0.0, 0.0, 1.718468888305653E9, 0.0, 2024-06-15 11:28:08.305
2.0, 49137.046830302104, 68710.89413295915, 5437.978260276111, -187500.02235174447, 73435.49411719968, -187500.02235174447, -179135.01609981252, -187500.02235174447, -0.22, 0.962, 0.04, 192.0, 0.0, 0.0, 0.0, 0.0, 0.0, 0.0, 0.0, 0.0, 0.0, 1.718468888305663E9, 0.0, 2024-06-15 11:28:08.305
3.0, 49367.67212959196, 68908.28238824397, 4011.1099494826735, -187500.02235174447, 73494.90505396189, -187500.02235174447, -179505.78683683716, -187500.02235174447, -0.22, 0.962, 0.04, 192.0, 0.0, 0.0, 0.0, 0.0, 0.0, 0.0, 0.0, 0.0, 0.0, 1.718468888305673E9, 0.0, 2024-06-15 11:28:08.305
4.0, 49405.46892946588, 68901.44275444064, 2776.064309604682, -187500.02235174447, 73755.10171116612, -187500.02235174447, -179899.98220205097, -187500.02235174447, -0.22, 0.962, 0.04, 192.0, 0.0, 0.0, 0.0, 0.0, 0.0, 0.0, 0.0, 0.0, 0.0, 1.7184688883056982E9, 0.0, 2024-06-15 11:28:08.305
5.0, 49160.71732768027, 68668.55992896079, 3912.4717012014034, -187500.02235174447, 73761.44960659143, -187500.02235174447, -179578.9887999283, -187500.02235174447, -0.22, 0.962, 0.04, 192.0, 0.0, 0.0, 0.0, 0.0, 0.0, 0.0, 0.0, 0.0, 0.0, 1.7184688883057244E9, 0.0, 2024-06-15 11:28:08.305
6.0, 49023.61172719142, 68577.76714298334, 5742.476074990759, -187500.02235174447, 73505.00804245568, -187500.02235174447, -179069.7713577475, -187500.02235174447, -0.22, 0.962, 0.04, 192.0, 0.0, 0.0, 0.0, 0.0, 0.0, 0.0, 0.0, 0.0, 0.0, 1.7184688883057337E9, 0.0, 2024-06-15 11:28:08.305
7.0, 49214.74149402875, 68752.26721194592, 5355.410916258206, -187500.02235174447, 73458.82933841101, -187500.02235174447, -179139.1735242812, -187500.02235174447, -0.212, 0.9580000000000001, 0.044, 192.0, 249.0, 96.0, 29.0, 240.0, 1.0, 96.0, 0.0, 0.0, 0.0, 1.7184688883057587E9, 0.0, 2024-06-15 11:28:08.305
8.0, 49438.907139171024, 68946.48151951809, 3474.221047666198, -187500.02235174447, 73624.41106133594, -187500.02235174447, -179730.53362733527, -187500.02235174447, -0.212, 0.9580000000000001, 0.044, 192.0, 0.0, 0.0, 0.0, 0.0, 0.0, 0.0, 0.0, 0.0, 0.0, 1.7184688883057683E9, 0.0, 2024-06-15 11:28:08.305
9.0, 49349.7460305388, 68865.47879761206, 2807.6249727755753, -187500.02235174447, 73787.89172028204, -187500.02235174447, -179893.9695827925, -187500.02235174447, -0.212, 0.9580000000000001, 0.044, 192.0, 0.0, 0.0, 0.0, 0.0, 0.0, 0.0, 0.0, 0.0, 0.0, 1.7184688883057773E9, 0.0, 2024-06-15 11:28:08.305
10.0, 49071.04212892558, 68615.45218413499, 4924.692800604439, -187500.02235174447, 73631.09423292807, -187500.02235174447, -179325.78823873858, -187500.02235174447, -0.212, 0.9580000000000001, 0.044, 192.0, 0.0, 0.0, 0.0, 0.0, 0.0, 0.0, 0.0, 0.0, 0.0, 1.7184688883057864E9, 0.0, 2024-06-15 11:28:08.305
11.0, 49102.20046069628, 68639.61441989118, 5853.050154811162, -187500.02235174447, 73472.86623392896, -187500.02235174447, -179006.1582930277, -187500.02235174447, -0.212, 0.9580000000000001, 0.044, 192.0, 0.0, 0.0, 0.0, 0.0, 0.0, 0.0, 0.0, 0.0, 0.0, 1.7184688883058112E9, 0.0, 2024-06-15 11:28:08.305
12.0, 49386.425243189966, 68896.36890844928, 4360.780639741497, -187500.02235174447, 73548.37042669898, -187500.02235174447, -179505.33980194805, -187500.02235174447, -0.212, 0.9580000000000001, 0.044, 192.0, 0.0, 0.0, 0.0, 0.0, 0.0, 0.0, 0.0, 0.0, 0.0, 1.7184688883058214E9, 0.0, 2024-06-15 11:28:08.305
0.0, 0.0, 0.0, 0.0, 0.0, 0.0, 0.0, 0.0, 0.0, -0.218, 0.9500000000000001, 0.076, 192.0, 249.0, 48.0, 29.0, 176.0, 2.0, 96.0, 0.0, 0.0, 0.0, 1.7184688883953292E9, 0.0, 2024-06-15 11:28:08.395
1.0, 48635.74190565848, 68314.1730206219, -9556.890673266731, -187500.02235174447, 72887.40699141109, -187500.02235174447, -187500.02235174447, -187500.02235174447, -0.218, 0.9500000000000001, 0.076, 192.0, 0.0, 0.0, 0.0, 0.0, 0.0, 0.0, 0.0, 0.0, 0.0, 1.718468888411299E9, 0.0, 2024-06-15 11:28:08.411
2.0, 48280.61738975256, 67955.82985351441, -7742.420761873814, -187500.02235174447, 72940.2688670479, -187500.02235174447, -187500.02235174447, -187500.02235174447, -0.218, 0.9500000000000001, 0.076, 192.0, 0.0, 0.0, 0.0, 0.0, 0.0, 0.0, 0.0, 0.0, 0.0, 1.7184688888892128E9, 0.0, 2024-06-15 11:28:08.889
3.0, 48450.960034246455, 68150.80412039807, -7285.104070318231, -187500.02235174447, 72558.18814732888, -187500.02235174447, -187500.02235174447, -187500.02235174447, -0.218, 0.9500000000000001, 0.076, 192.0, 0.0, 0.0, 0.0, 0.0, 0.0, 0.0, 0.0, 0.0, 0.0, 1.7184688888894343E9, 0.0, 2024-06-15 11:28:08.889
4.0, 48817.86391948032, 68550.96740138142, -9185.00234901933, -187500.02235174447, 72509.79662058313, -187500.02235174447, -187500.02235174447, -187500.02235174447, -0.218, 0.9500000000000001, 0.076, 192.0, 0.0, 0.0, 0.0, 0.0, 0.0, 0.0, 0.0, 0.0, 0.0, 1.7184688888894804E9, 0.0, 2024-06-15 11:28:08.889
5.0, 48704.78644428092, 68392.67234714894, -9761.342079799424, -187500.02235174447, 72844.53634554581, -187500.02235174447, -187500.02235174447, -187500.02235174447, -0.218, 0.9500000000000001, 0.076, 192.0, 0.0, 0.0, 0.0, 0.0, 0.0, 0.0, 0.0, 0.0, 0.0, 1.7184688888894904E9, 0.0, 2024-06-15 11:28:08.889
6.0, 48342.48701840485, 68012.89385710882, -8099.288713847246, -187500.02235174447, 72974.91407095362, -187500.02235174447, -187500.02235174447, -187500.02235174447, -0.218, 0.9500000000000001, 0.076, 192.0, 0.0, 0.0, 0.0, 0.0, 0.0, 0.0, 0.0, 0.0, 0.0, 1.7184688888895159E9, 0.0, 2024-06-15 11:28:08.889
7.0, 48399.975705143894, 68093.33778540346, -7181.883714423623, -187500.02235174447, 72651.86430834107, -187500.02235174447, -187500.02235174447, -187500.02235174447, -0.218, 0.9500000000000001, 0.076, 192.0, 0.0, 0.0, 0.0, 0.0, 0.0, 0.0, 0.0, 0.0, 0.0, 1.7184688888895257E9, 0.0, 2024-06-15 11:28:08.889
8.0, 48797.79205295945, 68527.65453191454, -8870.13332487742, -187500.02235174447, 72481.18638768034, -187500.02235174447, -187500.02235174447, -187500.02235174447, -0.22, 0.9540000000000001, 0.09, 192.0, 249.0, 32.0, 29.0, 208.0, 2.0, 208.0, 0.0, 0.0, 0.0, 1.7184688888895376E9, 0.0, 2024-06-15 11:28:08.889
9.0, 48779.57538122838, 68480.2688336693, -9891.876267418416, -187500.02235174447, 72828.688958727, -187500.02235174447, -187500.02235174447, -187500.02235174447, -0.22, 0.9540000000000001, 0.09, 192.0, 0.0, 0.0, 0.0, 0.0, 0.0, 0.0, 0.0, 0.0, 0.0, 1.718468888889547E9, 0.0, 2024-06-15 11:28:08.889
10.0, 48385.022388103294, 68050.08715988245, -8453.787380908416, -187500.02235174447, 72988.81685600482, -187500.02235174447, -187500.02235174447, -187500.02235174447, -0.22, 0.9540000000000001, 0.09, 192.0, 0.0, 0.0, 0.0, 0.0, 0.0, 0.0, 0.0, 0.0, 0.0, 1.718468888889557E9, 0.0, 2024-06-15 11:28:08.889
11.0, 48304.8019772532, 67988.88808356383, -7107.295943176263, -187500.02235174447, 72713.86804746008, -187500.02235174447, -187500.02235174447, -187500.02235174447, -0.22, 0.9540000000000001, 0.09, 192.0, 0.0, 0.0, 0.0, 0.0, 0.0, 0.0, 0.0, 0.0, 0.0, 1.718468888889566E9, 0.0, 2024-06-15 11:28:08.889
12.0, 48711.33550540632, 68426.62464697655, -8445.24901452649, -187500.02235174447, 72432.39252953441, -187500.02235174447, -187500.02235174447, -187500.02235174447, -0.22, 0.9540000000000001, 0.09, 192.0, 0.0, 0.0, 0.0, 0.0, 0.0, 0.0, 0.0, 0.0, 0.0, 1.7184688888895752E9, 0.0, 2024-06-15 11:28:08.889
13.0, 48785.31977955339, 68494.30572918722, -9827.816167809508, -187500.02235174447, 72744.6240478306, -187500.02235174447, -187500.02235174447, -187500.02235174447, -0.22, 0.9540000000000001, 0.09, 192.0, 0.0, 0.0, 0.0, 0.0, 0.0, 0.0, 0.0, 0.0, 0.0, 1.7184688888896036E9, 0.0, 2024-06-15 11:28:08.889
14.0, 48438.666574796036, 68105.6759483428, -8743.086009393455, -187500.02235174447, 72956.40682654463, -187500.02235174447, -187500.02235174447, -187500.02235174447, -0.22, 0.9540000000000001, 0.09, 192.0, 0.0, 0.0, 0.0, 0.0, 0.0, 0.0, 0.0, 0.0, 0.0, 1.7184688888896132E9, 0.0, 2024-06-15 11:28:08.889
15.0, 48286.45119505539, 67972.9959932561, -7154.078144321221, -187500.02235174447, 72792.79205713178, -187500.02235174447, -187500.02235174447, -187500.02235174447, -0.22, 0.9540000000000001, 0.09, 192.0, 0.0, 0.0, 0.0, 0.0, 0.0, 0.0, 0.0, 0.0, 0.0, 1.7184688888896227E9, 0.0, 2024-06-15 11:28:08.889
16.0, 48652.796286677876, 68366.02906775821, -8045.532768432233, -187500.02235174447, 72430.51498300016, -187500.02235174447, -187500.02235174447, -187500.02235174447, -0.22, 0.9540000000000001, 0.09, 192.0, 0.0, 0.0, 0.0, 0.0, 0.0, 0.0, 0.0, 0.0, 0.0, 1.7184688888896475E9, 0.0, 2024-06-15 11:28:08.889
17.0, 48823.653021294245, 68543.25604954435, -9727.300372993992, -187500.02235174447, 72681.65918369999, -187500.02235174447, -187500.02235174447, -187500.02235174447, -0.22, 0.9540000000000001, 0.09, 192.0, 0.0, 0.0, 0.0, 0.0, 0.0, 0.0, 0.0, 0.0, 0.0, 1.7184688888896568E9, 0.0, 2024-06-15 11:28:08.889
18.0, 48522.41856127007, 68185.58343477052, -9054.17758872242, -187500.02235174447, 72940.62649495919, -187500.02235174447, -187500.02235174447, -187500.02235174447, -0.23, 0.9560000000000001, 0.094, 192.0, 248.0, 208.0, 29.0, 224.0, 2.0, 240.0, 0.0, 0.0, 0.0, 1.718468888889666E9, 0.0, 2024-06-15 11:28:08.889
19.0, 48288.68636950092, 67964.70349606317, -7317.312934078328, -187500.02235174447, 72882.8025320533, -187500.02235174447, -187500.02235174447, -187500.02235174447, -0.23, 0.9560000000000001, 0.094, 192.0, 0.0, 0.0, 0.0, 0.0, 0.0, 0.0, 0.0, 0.0, 0.0, 1.718468888889675E9, 0.0, 2024-06-15 11:28:08.889
20.0, 48583.28236142187, 68281.27125278368, -7703.618133499401, -187500.02235174447, 72473.98912596573, -187500.02235174447, -187500.02235174447, -187500.02235174447, -0.23, 0.9560000000000001, 0.094, 192.0, 0.0, 0.0, 0.0, 0.0, 0.0, 0.0, 0.0, 0.0, 0.0, 1.7184688888896842E9, 0.0, 2024-06-15 11:28:08.889
21.0, 48843.03198373699, 68564.11022712114, -9556.175417444161, -187500.02235174447, 72626.83035455113, -187500.02235174447, -187500.02235174447, -187500.02235174447, -0.23, 0.9560000000000001, 0.094, 192.0, 0.0, 0.0, 0.0, 0.0, 0.0, 0.0, 0.0, 0.0, 0.0, 1.7184688888896935E9, 0.0, 2024-06-15 11:28:08.889
22.0, 48604.62827737669, 68277.00206959272, -9356.641394691635, -187500.02235174447, 72922.14160229464, -187500.02235174447, -187500.02235174447, -187500.02235174447, -0.23, 0.9560000000000001, 0.094, 192.0, 0.0, 0.0, 0.0, 0.0, 0.0, 0.0, 0.0, 0.0, 0.0, 1.7184688888897023E9, 0.0, 2024-06-15 11:28:08.889
23.0, 48306.56776506517, 67988.32928995244, -7626.348152917404, -187500.02235174447, 72945.23095431697, -187500.02235174447, -187500.02235174447, -187500.02235174447, -0.23, 0.9560000000000001, 0.094, 192.0, 0.0, 0.0, 0.0, 0.0, 0.0, 0.0, 0.0, 0.0, 0.0, 1.718468888889712E9, 0.0, 2024-06-15 11:28:08.889
24.0, 48500.40209298159, 68201.72139426725, -7450.954014176609, -187500.02235174447, 72527.78977486966, -187500.02235174447, -187500.02235174447, -187500.02235174447, -0.23, 0.9560000000000001, 0.094, 192.0, 0.0, 0.0, 0.0, 0.0, 0.0, 0.0, 0.0, 0.0, 0.0, 1.7184688888897216E9, 0.0, 2024-06-15 11:28:08.889
25.0, 48813.88530896727, 68540.79735765426, -9286.12164093514, -187500.02235174447, 72547.07933033459, -187500.02235174447, -187500.02235174447, -187500.02235174447, -0.23, 0.9560000000000001, 0.094, 192.0, 0.0, 0.0, 0.0, 0.0, 0.0, 0.0, 0.0, 0.0, 0.0, 1.7184688888897307E9, 0.0, 2024-06-15 11:28:08.889
26.0, 48662.072260626825, 68338.35760812255, -9558.99173724553, -187500.02235174447, 72874.68884881602, -187500.02235174447, -187500.02235174447, -187500.02235174447, -0.23, 0.9560000000000001, 0.094, 192.0, 0.0, 0.0, 0.0, 0.0, 0.0, 0.0, 0.0, 0.0, 0.0, 1.71846888888974E9, 0.0, 2024-06-15 11:28:08.889
27.0, 48307.84181449912, 67980.23795845962, -7891.663359601898, -187500.02235174447, 72953.09876836523, -187500.02235174447, -187500.02235174447, -187500.02235174447, -0.23, 0.9560000000000001, 0.094, 192.0, 0.0, 0.0, 0.0, 0.0, 0.0, 0.0, 0.0, 0.0, 0.0, 1.7184688888897493E9, 0.0, 2024-06-15 11:28:08.889
28.0, 48426.57428104571, 68114.81781182502, -7225.424912622561, -187500.02235174447, 72584.74201974178, -187500.02235174447, -187500.02235174447, -187500.02235174447, -0.242, 0.9560000000000001, 0.096, 192.0, 248.0, 112.0, 29.0, 224.0, 3.0, 0.0, 0.0, 0.0, 0.0, 1.7184688888897583E9, 0.0, 2024-06-15 11:28:08.889
29.0, 48790.46068077811, 68513.21530499641, -8944.29641298013, -187500.02235174447, 72501.72764083477, -187500.02235174447, -187500.02235174447, -187500.02235174447, -0.242, 0.9560000000000001, 0.096, 192.0, 0.0, 0.0, 0.0, 0.0, 0.0, 0.0, 0.0, 0.0, 0.0, 1.7184688888897672E9, 0.0, 2024-06-15 11:28:08.889
30.0, 48705.36758963676, 68395.17574252794, -9658.032316926994, -187500.02235174447, 72832.33229307321, -187500.02235174447, -187500.02235174447, -187500.02235174447, -0.242, 0.9560000000000001, 0.096, 192.0, 0.0, 0.0, 0.0, 0.0, 0.0, 0.0, 0.0, 0.0, 0.0, 1.7184688888897765E9, 0.0, 2024-06-15 11:28:08.889
31.0, 48363.654120404026, 68036.31848529798, -8205.347741287678, -187500.02235174447, 72984.36885885822, -187500.02235174447, -187500.02235174447, -187500.02235174447, -0.242, 0.9560000000000001, 0.096, 192.0, 0.0, 0.0, 0.0, 0.0, 0.0, 0.0, 0.0, 0.0, 0.0, 1.7184688888897853E9, 0.0, 2024-06-15 11:28:08.889
32.0, 48373.82416413119, 68062.60413677742, -7148.244339018386, -187500.02235174447, 72688.4541140144, -187500.02235174447, -187500.02235174447, -187500.02235174447, -0.242, 0.9560000000000001, 0.096, 192.0, 0.0, 0.0, 0.0, 0.0, 0.0, 0.0, 0.0, 0.0, 0.0, 1.7184688888897948E9, 0.0, 2024-06-15 11:28:08.889
33.0, 48750.29459599192, 68472.19985392093, -8587.741385429072, -187500.02235174447, 72468.33413461855, -187500.02235174447, -187500.02235174447, -187500.02235174447, -0.242, 0.9560000000000001, 0.096, 192.0, 0.0, 0.0, 0.0, 0.0, 0.0, 0.0, 0.0, 0.0, 0.0, 1.718468888889804E9, 0.0, 2024-06-15 11:28:08.889
34.0, 48756.44132571713, 68455.32428685717, -9696.991407512594, -187500.02235174447, 72781.88440583758, -187500.02235174447, -187500.02235174447, -187500.02235174447, -0.242, 0.9560000000000001, 0.096, 192.0, 0.0, 0.0, 0.0, 0.0, 0.0, 0.0, 0.0, 0.0, 0.0, 1.7184688888898127E9, 0.0, 2024-06-15 11:28:08.889
35.0, 48399.88629816608, 68064.25816586711, -8473.747488707006, -187500.02235174447, 72956.94326841156, -187500.02235174447, -187500.02235174447, -187500.02235174447, -0.242, 0.9560000000000001, 0.096, 192.0, 0.0, 0.0, 0.0, 0.0, 0.0, 0.0, 0.0, 0.0, 0.0, 1.718468888889822E9, 0.0, 2024-06-15 11:28:08.889
36.0, 48322.41515188398, 68004.46724944917, -7111.386312411584, -187500.02235174447, 72748.28973392126, -187500.02235174447, -187500.02235174447, -187500.02235174447, -0.242, 0.9560000000000001, 0.096, 192.0, 0.0, 0.0, 0.0, 0.0, 0.0, 0.0, 0.0, 0.0, 0.0, 1.718468888889831E9, 0.0, 2024-06-15 11:28:08.889
37.0, 48701.21016516807, 68414.01826310376, -8240.06000042677, -187500.02235174447, 72443.03195989513, -187500.02235174447, -187500.02235174447, -187500.02235174447, -0.242, 0.9560000000000001, 0.096, 192.0, 0.0, 0.0, 0.0, 0.0, 0.0, 0.0, 0.0, 0.0, 0.0, 1.71846888888984E9, 0.0, 2024-06-15 11:28:08.889
38.0, 48809.25849786503, 68521.59720916716, -9690.53175336501, -187500.02235174447, 72727.3685011111, -187500.02235174447, -187500.02235174447, -187500.02235174447, -0.242, 0.9560000000000001, 0.096, 192.0, 0.0, 0.0, 0.0, 0.0, 0.0, 0.0, 0.0, 0.0, 0.0, 1.7184688888898647E9, 0.0, 2024-06-15 11:28:08.889
39.0, 48475.21167698046, 68146.22201278472, -8813.672818383315, -187500.02235174447, 72947.28731480686, -187500.02235174447, -187500.02235174447, -187500.02235174447, -0.242, 0.9460000000000001, 0.094, 192.0, 248.0, 112.0, 29.0, 144.0, 2.0, 240.0, 0.0, 0.0, 0.0, 1.7184688888898745E9, 0.0, 2024-06-15 11:28:08.889
40.0, 48306.120730176066, 67992.06203127647, -7224.039104466332, -187500.02235174447, 72833.80750820726, -187500.02235174447, -187500.02235174447, -187500.02235174447, -0.242, 0.9460000000000001, 0.094, 192.0, 0.0, 0.0, 0.0, 0.0, 0.0, 0.0, 0.0, 0.0, 0.0, 1.7184688888898842E9, 0.0, 2024-06-15 11:28:08.889
41.0, 48647.07424009732, 68356.95425950937, -7904.783833597164, -187500.02235174447, 72473.13975967643, -187500.02235174447, -187500.02235174447, -187500.02235174447, -0.242, 0.9460000000000001, 0.094, 192.0, 0.0, 0.0, 0.0, 0.0, 0.0, 0.0, 0.0, 0.0, 0.0, 1.7184688888899095E9, 0.0, 2024-06-15 11:28:08.889
42.0, 48822.2225096491, 68544.41834025602, -9592.966388817596, -187500.02235174447, 72688.32000354768, -187500.02235174447, -187500.02235174447, -187500.02235174447, -0.242, 0.9460000000000001, 0.094, 192.0, 0.0, 0.0, 0.0, 0.0, 0.0, 0.0, 0.0, 0.0, 0.0, 1.7184688888899188E9, 0.0, 2024-06-15 11:28:08.889
43.0, 48543.719773735975, 68213.63487406193, -9092.533182207726, -187500.02235174447, 72955.33394281077, -187500.02235174447, -187500.02235174447, -187500.02235174447, -0.242, 0.9460000000000001, 0.094, 192.0, 0.0, 0.0, 0.0, 0.0, 0.0, 0.0, 0.0, 0.0, 0.0, 1.7184688888899276E9, 0.0, 2024-06-15 11:28:08.889
44.0, 48281.06442464166, 67963.16122569576, -7390.60430414728, -187500.02235174447, 72908.0600032878, -187500.02235174447, -187500.02235174447, -187500.02235174447, -0.242, 0.9460000000000001, 0.094, 192.0, 0.0, 0.0, 0.0, 0.0, 0.0, 0.0, 0.0, 0.0, 0.0, 1.7184688888899367E9, 0.0, 2024-06-15 11:28:08.889
45.0, 48557.287282620346, 68261.17703451838, -7599.302542126482, -187500.02235174447, 72496.63144309896, -187500.02235174447, -187500.02235174447, -187500.02235174447, -0.242, 0.9460000000000001, 0.094, 192.0, 0.0, 0.0, 0.0, 0.0, 0.0, 0.0, 0.0, 0.0, 0.0, 1.7184688888899455E9, 0.0, 2024-06-15 11:28:08.889
46.0, 48842.60730059234, 68568.71468647894, -9439.521663131913, -187500.02235174447, 72626.0927469841, -187500.02235174447, -187500.02235174447, -187500.02235174447, -0.242, 0.9460000000000001, 0.094, 192.0, 0.0, 0.0, 0.0, 0.0, 0.0, 0.0, 0.0, 0.0, 0.0, 1.7184688888899553E9, 0.0, 2024-06-15 11:28:08.889
47.0, 48614.70891412603, 68289.22847380978, -9370.968862887486, -187500.02235174447, 72922.34276799473, -187500.02235174447, -187500.02235174447, -187500.02235174447, -0.242, 0.9460000000000001, 0.094, 192.0, 0.0, 0.0, 0.0, 0.0, 0.0, 0.0, 0.0, 0.0, 0.0, 1.7184688888899643E9, 0.0, 2024-06-15 11:28:08.889
48.0, 48282.02554965324, 67959.11555994935, -7641.256766469093, -187500.02235174447, 72935.64205594565, -187500.02235174447, -187500.02235174447, -187500.02235174447, -0.242, 0.9460000000000001, 0.094, 192.0, 0.0, 0.0, 0.0, 0.0, 0.0, 0.0, 0.0, 0.0, 0.0, 1.7184688888899736E9, 0.0, 2024-06-15 11:28:08.889
49.0, 48498.301029002796, 68198.50274306569, -7364.385707901205, -187500.02235174447, 72549.71683618032, -187500.02235174447, -187500.02235174447, -187500.02235174447, -0.246, 0.9560000000000001, 0.094, 192.0, 248.0, 80.0, 29.0, 224.0, 2.0, 240.0, 0.0, 0.0, 0.0, 1.7184688888899827E9, 0.0, 2024-06-15 11:28:08.889
50.0, 48832.54901558746, 68562.88088117611, -9190.25500896633, -187500.02235174447, 72566.50299626625, -187500.02235174447, -187500.02235174447, -187500.02235174447, -0.246, 0.9560000000000001, 0.094, 192.0, 0.0, 0.0, 0.0, 0.0, 0.0, 0.0, 0.0, 0.0, 0.0, 1.718468888889992E9, 0.0, 2024-06-15 11:28:08.889
51.0, 48676.01974916694, 68358.02714324322, -9550.252205163504, -187500.02235174447, 72884.76948556537, -187500.02235174447, -187500.02235174447, -187500.02235174447, -0.246, 0.9560000000000001, 0.094, 192.0, 0.0, 0.0, 0.0, 0.0, 0.0, 0.0, 0.0, 0.0, 0.0, 1.7184688888900013E9, 0.0, 2024-06-15 11:28:08.890
52.0, 48309.808768011186, 67978.62863285883, -7924.386313484468, -187500.02235174447, 72972.9247656971, -187500.02235174447, -187500.02235174447, -187500.02235174447, -0.246, 0.9560000000000001, 0.094, 192.0, 0.0, 0.0, 0.0, 0.0, 0.0, 0.0, 0.0, 0.0, 0.0, 1.7184688888900104E9, 0.0, 2024-06-15 11:28:08.890
53.0, 48407.195318602964, 68094.38831739286, -7180.98964464541, -187500.02235174447, 72616.81677303514, -187500.02235174447, -187500.02235174447, -187500.02235174447, -0.246, 0.9560000000000001, 0.094, 192.0, 0.0, 0.0, 0.0, 0.0, 0.0, 0.0, 0.0, 0.0, 0.0, 1.7184688888900197E9, 0.0, 2024-06-15 11:28:08.890
54.0, 48775.485011993056, 68500.13953449005, -8830.637792424894, -187500.02235174447, 72501.43706815685, -187500.02235174447, -187500.02235174447, -187500.02235174447, -0.246, 0.9560000000000001, 0.094, 192.0, 0.0, 0.0, 0.0, 0.0, 0.0, 0.0, 0.0, 0.0, 0.0, 1.7184688888900287E9, 0.0, 2024-06-15 11:28:08.890
55.0, 48745.69013663413, 68437.37583605955, -9628.818586923908, -187500.02235174447, 72839.14957513209, -187500.02235174447, -187500.02235174447, -187500.02235174447, -0.246, 0.9560000000000001, 0.094, 192.0, 0.0, 0.0, 0.0, 0.0, 0.0, 0.0, 0.0, 0.0, 0.0, 1.7184688888900375E9, 0.0, 2024-06-15 11:28:08.890
56.0, 48375.63465543207, 68040.8111859335, -8243.368058606155, -187500.02235174447, 72993.62248106272, -187500.02235174447, -187500.02235174447, -187500.02235174447, -0.246, 0.9560000000000001, 0.094, 192.0, 0.0, 0.0, 0.0, 0.0, 0.0, 0.0, 0.0, 0.0, 0.0, 1.7184688888900468E9, 0.0, 2024-06-15 11:28:08.890
57.0, 48344.8115998282, 68029.74707242812, -7100.5680680952155, -187500.02235174447, 72685.66014595749, -187500.02235174447, -187500.02235174447, -187500.02235174447, -0.246, 0.9560000000000001, 0.094, 192.0, 0.0, 0.0, 0.0, 0.0, 0.0, 0.0, 0.0, 0.0, 0.0, 1.718468888890056E9, 0.0, 2024-06-15 11:28:08.890
58.0, 48750.02637505846, 68467.97537421888, -8499.407291341699, -187500.02235174447, 72473.38562886544, -187500.02235174447, -187500.02235174447, -187500.02235174447, -0.246, 0.9560000000000001, 0.094, 192.0, 0.0, 0.0, 0.0, 0.0, 0.0, 0.0, 0.0, 0.0, 0.0, 1.7184688888900647E9, 0.0, 2024-06-15 11:28:08.890
59.0, 48778.681311450164, 68479.12889470207, -9664.24610188557, -187500.02235174447, 72793.10498155415, -187500.02235174447, -187500.02235174447, -187500.02235174447, -0.248, 0.962, 0.1, 192.0, 248.0, 64.0, 30.0, 16.0, 3.0, 32.0, 0.0, 0.0, 0.0, 1.7184688888900743E9, 0.0, 2024-06-15 11:28:08.890
60.0, 48426.86485372363, 68085.84995101094, -8531.347934168332, -187500.02235174447, 72980.56906230081, -187500.02235174447, -187500.02235174447, -187500.02235174447, -0.248, 0.962, 0.1, 192.0, 0.0, 0.0, 0.0, 0.0, 0.0, 0.0, 0.0, 0.0, 0.0, 1.7184688888900836E9, 0.0, 2024-06-15 11:28:08.890
61.0, 48314.86026225809, 67986.13881899582, -7112.280382189797, -187500.02235174447, 72784.41015296103, -187500.02235174447, -187500.02235174447, -187500.02235174447, -0.248, 0.962, 0.1, 192.0, 0.0, 0.0, 0.0, 0.0, 0.0, 0.0, 0.0, 0.0, 0.0, 1.7184688888900924E9, 0.0, 2024-06-15 11:28:08.890
62.0, 48696.73981627701, 68394.57224542764, -8128.971830483893, -187500.02235174447, 72471.84335849802, -187500.02235174447, -187500.02235174447, -187500.02235174447, -0.248, 0.962, 0.1, 192.0, 0.0, 0.0, 0.0, 0.0, 0.0, 0.0, 0.0, 0.0, 0.0, 1.7184688888901017E9, 0.0, 2024-06-15 11:28:08.890
63.0, 48807.17978563068, 68510.06370902821, -9605.639827923755, -187500.02235174447, 72740.8689547621, -187500.02235174447, -187500.02235174447, -187500.02235174447, -0.248, 0.962, 0.1, 192.0, 0.0, 0.0, 0.0, 0.0, 0.0, 0.0, 0.0, 0.0, 0.0, 1.718468888890111E9, 0.0, 2024-06-15 11:28:08.890
64.0, 48497.33990399121, 68159.47659724673, -8842.104237330466, -187500.02235174447, 72986.11229492573, -187500.02235174447, -187500.02235174447, -187500.02235174447, -0.248, 0.962, 0.1, 192.0, 0.0, 0.0, 0.0, 0.0, 0.0, 0.0, 0.0, 0.0, 0.0, 1.7184688888901207E9, 0.0, 2024-06-15 11:28:08.890
65.0, 48311.37339012306, 67990.81033358698, -7276.073965558287, -187500.02235174447, 72894.47014265897, -187500.02235174447, -187500.02235174447, -187500.02235174447, -0.248, 0.962, 0.1, 192.0, 0.0, 0.0, 0.0, 0.0, 0.0, 0.0, 0.0, 0.0, 0.0, 1.7184688888901305E9, 0.0, 2024-06-15 11:28:08.890
66.0, 48628.65640266614, 68333.21670689783, -7817.142643587905, -187500.02235174447, 72500.69946058982, -187500.02235174447, -187500.02235174447, -187500.02235174447, -0.248, 0.962, 0.1, 192.0, 0.0, 0.0, 0.0, 0.0, 0.0, 0.0, 0.0, 0.0, 0.0, 1.71846888889014E9, 0.0, 2024-06-15 11:28:08.890
67.0, 48836.19234993367, 68551.86147115963, -9526.671114763156, -187500.02235174447, 72692.2092070829, -187500.02235174447, -187500.02235174447, -187500.02235174447, -0.248, 0.962, 0.1, 192.0, 0.0, 0.0, 0.0, 0.0, 0.0, 0.0, 0.0, 0.0, 0.0, 1.718468888890149E9, 0.0, 2024-06-15 11:28:08.890
68.0, 48575.459250862514, 68238.3559034295, -9155.09571493813, -187500.02235174447, 72957.12208236719, -187500.02235174447, -187500.02235174447, -187500.02235174447, -0.248, 0.962, 0.1, 192.0, 0.0, 0.0, 0.0, 0.0, 0.0, 0.0, 0.0, 0.0, 0.0, 1.718468888890158E9, 0.0, 2024-06-15 11:28:08.890
69.0, 48304.13142491954, 67976.75108632458, -7503.324151435394, -187500.02235174447, 72927.23780003045, -187500.02235174447, -187500.02235174447, -187500.02235174447, -0.246, 0.9560000000000001, 0.10200000000000001, 192.0, 248.0, 80.0, 29.0, 224.0, 3.0, 48.0, 0.0, 0.0, 0.0, 1.7184688888901672E9, 0.0, 2024-06-15 11:28:08.890
70.0, 48557.57785529827, 68255.25382223772, -7558.331794539905, -187500.02235174447, 72521.71010037781, -187500.02235174447, -187500.02235174447, -187500.02235174447, -0.246, 0.9560000000000001, 0.10200000000000001, 192.0, 0.0, 0.0, 0.0, 0.0, 0.0, 0.0, 0.0, 0.0, 0.0, 1.7184688888901763E9, 0.0, 2024-06-15 11:28:08.890
71.0, 48841.601472091854, 68562.72441896492, -9338.581185171746, -187500.02235174447, 72616.39208989049, -187500.02235174447, -187500.02235174447, -187500.02235174447, -0.246, 0.9560000000000001, 0.10200000000000001, 192.0, 0.0, 0.0, 0.0, 0.0, 0.0, 0.0, 0.0, 0.0, 0.0, 1.7184688888901858E9, 0.0, 2024-06-15 11:28:08.890
72.0, 48626.39887647616, 68290.59193022155, -9354.450923735014, -187500.02235174447, 72905.64601488663, -187500.02235174447, -187500.02235174447, -187500.02235174447, -0.246, 0.9560000000000001, 0.10200000000000001, 192.0, 0.0, 0.0, 0.0, 0.0, 0.0, 0.0, 0.0, 0.0, 0.0, 1.7184688888901951E9, 0.0, 2024-06-15 11:28:08.890
73.0, 48314.65909655799, 67984.03775501702, -7736.586956570978, -187500.02235174447, 72962.71001848103, -187500.02235174447, -187500.02235174447, -187500.02235174447, -0.246, 0.9560000000000001, 0.10200000000000001, 192.0, 0.0, 0.0, 0.0, 0.0, 0.0, 0.0, 0.0, 0.0, 0.0, 1.7184688888902044E9, 0.0, 2024-06-15 11:28:08.890
74.0, 48466.181572220514, 68158.47076874624, -7284.567628451304, -187500.02235174447, 72575.08606613708, -187500.02235174447, -187500.02235174447, -187500.02235174447, -0.246, 0.9560000000000001, 0.10200000000000001, 192.0, 0.0, 0.0, 0.0, 0.0, 0.0, 0.0, 0.0, 0.0, 0.0, 1.718468888890214E9, 0.0, 2024-06-15 11:28:08.890
75.0, 48812.723018255594, 68538.94216286448, -9009.78702423418, -187500.02235174447, 72552.19787981485, -187500.02235174447, -187500.02235174447, -187500.02235174447, -0.246, 0.9560000000000001, 0.10200000000000001, 192.0, 0.0, 0.0, 0.0, 0.0, 0.0, 0.0, 0.0, 0.0, 0.0, 1.7184688888902233E9, 0.0, 2024-06-15 11:28:08.890
76.0, 48692.18006040813, 68374.63448937351, -9499.647855716688, -187500.02235174447, 72873.07952321524, -187500.02235174447, -187500.02235174447, -187500.02235174447, -0.246, 0.9560000000000001, 0.10200000000000001, 192.0, 0.0, 0.0, 0.0, 0.0, 0.0, 0.0, 0.0, 0.0, 0.0, 1.7184688888902333E9, 0.0, 2024-06-15 11:28:08.890
77.0, 48347.60556788511, 68017.11833681088, -8032.21112873687, -187500.02235174447, 72985.06176293633, -187500.02235174447, -187500.02235174447, -187500.02235174447, -0.246, 0.9560000000000001, 0.10200000000000001, 192.0, 0.0, 0.0, 0.0, 0.0, 0.0, 0.0, 0.0, 0.0, 0.0, 1.7184688888902423E9, 0.0, 2024-06-15 11:28:08.890
78.0, 48396.8241091757, 68082.38543062037, -7150.278347763819, -187500.02235174447, 72655.41823570947, -187500.02235174447, -187500.02235174447, -187500.02235174447, -0.246, 0.9560000000000001, 0.10200000000000001, 192.0, 0.0, 0.0, 0.0, 0.0, 0.0, 0.0, 0.0, 0.0, 0.0, 1.718468888890252E9, 0.0, 2024-06-15 11:28:08.890
79.0, 48753.58030242685, 68477.94425224594, -8615.569307275928, -187500.02235174447, 72497.23494019925, -187500.02235174447, -187500.02235174447, -187500.02235174447, -0.246, 0.9560000000000001, 0.10200000000000001, 192.0, 0.0, 0.0, 0.0, 0.0, 0.0, 0.0, 0.0, 0.0, 0.0, 1.718468888890262E9, 0.0, 2024-06-15 11:28:08.890
80.0, 48751.68040414815, 68446.78592047525, -9535.120074167262, -187500.02235174447, 72834.20983960746, -187500.02235174447, -187500.02235174447, -187500.02235174447, -0.25, 0.9540000000000001, 0.10200000000000001, 192.0, 248.0, 48.0, 29.0, 208.0, 3.0, 48.0, 0.0, 0.0, 0.0, 1.718468888890272E9, 0.0, 2024-06-15 11:28:08.890
81.0, 48401.40621678904, 68067.09683741294, -8338.675896963585, -187500.02235174447, 72999.74685904347, -187500.02235174447, -187500.02235174447, -187500.02235174447, -0.25, 0.9540000000000001, 0.10200000000000001, 192.0, 0.0, 0.0, 0.0, 0.0, 0.0, 0.0, 0.0, 0.0, 0.0, 1.7184688888902807E9, 0.0, 2024-06-15 11:28:08.890
82.0, 48347.53851265174, 68037.23490682065, -7102.624428585104, -187500.02235174447, 72752.53656536777, -187500.02235174447, -187500.02235174447, -187500.02235174447, -0.25, 0.9540000000000001, 0.10200000000000001, 192.0, 0.0, 0.0, 0.0, 0.0, 0.0, 0.0, 0.0, 0.0, 0.0, 1.7184688888902905E9, 0.0, 2024-06-15 11:28:08.890
83.0, 48709.68147631663, 68434.58186800264, -8217.864718182649, -187500.02235174447, 72491.3564314075, -187500.02235174447, -187500.02235174447, -187500.02235174447, -0.25, 0.9540000000000001, 0.10200000000000001, 192.0, 0.0, 0.0, 0.0, 0.0, 0.0, 0.0, 0.0, 0.0, 0.0, 1.7184688888902996E9, 0.0, 2024-06-15 11:28:08.890
84.0, 48782.2128870741, 68489.85773204062, -9479.620692684734, -187500.02235174447, 72795.80954263324, -187500.02235174447, -187500.02235174447, -187500.02235174447, -0.25, 0.9540000000000001, 0.10200000000000001, 192.0, 0.0, 0.0, 0.0, 0.0, 0.0, 0.0, 0.0, 0.0, 0.0, 1.7184688888903089E9, 0.0, 2024-06-15 11:28:08.890
85.0, 48482.900677073085, 68152.54755646558, -8640.267984899043, -187500.02235174447, 73027.37361519023, -187500.02235174447, -187500.02235174447, -187500.02235174447, -0.25, 0.9540000000000001, 0.10200000000000001, 192.0, 0.0, 0.0, 0.0, 0.0, 0.0, 0.0, 0.0, 0.0, 0.0, 1.7184688888903184E9, 0.0, 2024-06-15 11:28:08.890
86.0, 48332.316974677684, 68022.25923803559, -7201.8214704777565, -187500.02235174447, 72874.33122090474, -187500.02235174447, -187500.02235174447, -187500.02235174447, -0.25, 0.9540000000000001, 0.10200000000000001, 192.0, 0.0, 0.0, 0.0, 0.0, 0.0, 0.0, 0.0, 0.0, 0.0, 1.7184688888903277E9, 0.0, 2024-06-15 11:28:08.890
87.0, 48660.17236234812, 68381.69764062138, -7874.832496027053, -187500.02235174447, 72513.99874854073, -187500.02235174447, -187500.02235174447, -187500.02235174447, -0.25, 0.9540000000000001, 0.10200000000000001, 192.0, 0.0, 0.0, 0.0, 0.0, 0.0, 0.0, 0.0, 0.0, 0.0, 1.7184688888903372E9, 0.0, 2024-06-15 11:28:08.890
88.0, 48812.54420429996, 68541.87024138811, -9390.95132243053, -187500.02235174447, 72733.33641688066, -187500.02235174447, -187500.02235174447, -187500.02235174447, -0.25, 0.9540000000000001, 0.10200000000000001, 192.0, 0.0, 0.0, 0.0, 0.0, 0.0, 0.0, 0.0, 0.0, 0.0, 1.718468888890347E9, 0.0, 2024-06-15 11:28:08.890
89.0, 48517.300011789805, 68200.06736517756, -8855.403525281374, -187500.02235174447, 72950.41655903061, -187500.02235174447, -187500.02235174447, -187500.02235174447, -0.25, 0.9540000000000001, 0.10200000000000001, 192.0, 0.0, 0.0, 0.0, 0.0, 0.0, 0.0, 0.0, 0.0, 0.0, 1.7184688888903565E9, 0.0, 2024-06-15 11:28:08.890
90.0, 48310.859300000586, 68003.97551107116, -7318.654038745647, -187500.02235174447, 72887.89872978911, -187500.02235174447, -187500.02235174447, -187500.02235174447, -0.248, 0.9520000000000001, 0.10200000000000001, 192.0, 248.0, 64.0, 29.0, 192.0, 3.0, 48.0, 0.0, 0.0, 0.0, 1.7184688888903658E9, 0.0, 2024-06-15 11:28:08.890
91.0, 48591.32898942578, 68310.35087232005, -7529.96743082612, -187500.02235174447, 72497.4137541549, -187500.02235174447, -187500.02235174447, -187500.02235174447, -0.248, 0.9520000000000001, 0.10200000000000001, 192.0, 0.0, 0.0, 0.0, 0.0, 0.0, 0.0, 0.0, 0.0, 0.0, 1.7184688888903751E9, 0.0, 2024-06-15 11:28:08.890
92.0, 48830.358544630835, 68565.02664864382, -9176.396927404037, -187500.02235174447, 72651.39492170751, -187500.02235174447, -187500.02235174447, -187500.02235174447, -0.248, 0.9520000000000001, 0.10200000000000001, 192.0, 0.0, 0.0, 0.0, 0.0, 0.0, 0.0, 0.0, 0.0, 0.0, 1.718468888890385E9, 0.0, 2024-06-15 11:28:08.890
93.0, 48606.796396588856, 68290.50252324373, -9053.395277666483, -187500.02235174447, 72934.50211697843, -187500.02235174447, -187500.02235174447, -187500.02235174447, -0.248, 0.9520000000000001, 0.10200000000000001, 192.0, 0.0, 0.0, 0.0, 0.0, 0.0, 0.0, 0.0, 0.0, 0.0, 1.7184688888903944E9, 0.0, 2024-06-15 11:28:08.890
94.0, 48302.969134207866, 67997.26998773456, -7490.494250118048, -187500.02235174447, 72926.92487560808, -187500.02235174447, -187500.02235174447, -187500.02235174447, -0.248, 0.9520000000000001, 0.10200000000000001, 192.0, 0.0, 0.0, 0.0, 0.0, 0.0, 0.0, 0.0, 0.0, 0.0, 1.718468888890404E9, 0.0, 2024-06-15 11:28:08.890
95.0, 48526.30776480529, 68236.36659817297, -7275.738689391457, -187500.02235174447, 72535.74699589575, -187500.02235174447, -187500.02235174447, -187500.02235174447, -0.248, 0.9520000000000001, 0.10200000000000001, 192.0, 0.0, 0.0, 0.0, 0.0, 0.0, 0.0, 0.0, 0.0, 0.0, 1.7184688888904433E9, 0.0, 2024-06-15 11:28:08.890
96.0, 48816.031076434985, 68557.36000029564, -8938.015572788188, -187500.02235174447, 72581.23279586229, -187500.02235174447, -187500.02235174447, -187500.02235174447, -0.248, 0.9520000000000001, 0.10200000000000001, 192.0, 0.0, 0.0, 0.0, 0.0, 0.0, 0.0, 0.0, 0.0, 0.0, 1.7184688888904536E9, 0.0, 2024-06-15 11:28:08.890
97.0, 48639.58640570479, 68331.8308987416, -9160.57189232968, -187500.02235174447, 72862.50714808788, -187500.02235174447, -187500.02235174447, -187500.02235174447, -0.248, 0.9520000000000001, 0.10200000000000001, 192.0, 0.0, 0.0, 0.0, 0.0, 0.0, 0.0, 0.0, 0.0, 0.0, 1.718468888890463E9, 0.0, 2024-06-15 11:28:08.890
98.0, 48348.83491383016, 68039.53713649955, -7726.215747143716, -187500.02235174447, 72966.91214643863, -187500.02235174447, -187500.02235174447, -187500.02235174447, -0.248, 0.9520000000000001, 0.10200000000000001, 192.0, 0.0, 0.0, 0.0, 0.0, 0.0, 0.0, 0.0, 0.0, 0.0, 1.7184688888904886E9, 0.0, 2024-06-15 11:28:08.890
99.0, 48456.99500524939, 68160.86240540295, -7072.315463103708, -187500.02235174447, 72607.69726129738, -187500.02235174447, -187500.02235174447, -187500.02235174447, -0.248, 0.9520000000000001, 0.10200000000000001, 192.0, 0.0, 0.0, 0.0, 0.0, 0.0, 0.0, 0.0, 0.0, 0.0, 1.718468888890498E9, 0.0, 2024-06-15 11:28:08.890
100.0, 48800.13898612726, 68540.35032276515, -8612.194193863177, -187500.02235174447, 72534.04826331715, -187500.02235174447, -187500.02235174447, -187500.02235174447, -0.246, 0.9520000000000001, 0.1, 192.0, 248.0, 80.0, 29.0, 192.0, 3.0, 32.0, 0.0, 0.0, 0.0, 1.7184688888905077E9, 0.0, 2024-06-15 11:28:08.890
101.0, 48724.74655207951, 68427.18344058793, -9274.342271607193, -187500.02235174447, 72849.52078455935, -187500.02235174447, -187500.02235174447, -187500.02235174447, -0.246, 0.9520000000000001, 0.1, 192.0, 0.0, 0.0, 0.0, 0.0, 0.0, 0.0, 0.0, 0.0, 0.0, 1.7184688888905168E9, 0.0, 2024-06-15 11:28:08.890
102.0, 48394.16425158552, 68084.15121843234, -8004.293799912191, -187500.02235174447, 72999.9256729991, -187500.02235174447, -187500.02235174447, -187500.02235174447, -0.246, 0.9520000000000001, 0.1, 192.0, 0.0, 0.0, 0.0, 0.0, 0.0, 0.0, 0.0, 0.0, 0.0, 1.7184688888905256E9, 0.0, 2024-06-15 11:28:08.890
103.0, 48391.10206259514, 68099.3727564064, -6983.556685871683, -187500.02235174447, 72689.99638438183, -187500.02235174447, -187500.02235174447, -187500.02235174447, -0.246, 0.9520000000000001, 0.1, 192.0, 0.0, 0.0, 0.0, 0.0, 0.0, 0.0, 0.0, 0.0, 0.0, 1.7184688888905349E9, 0.0, 2024-06-15 11:28:08.890
104.0, 48748.32764247986, 68492.53994137526, -8279.846105557217, -187500.02235174447, 72493.43514364185, -187500.02235174447, -187500.02235174447, -187500.02235174447, -0.246, 0.9520000000000001, 0.1, 192.0, 0.0, 0.0, 0.0, 0.0, 0.0, 0.0, 0.0, 0.0, 0.0, 1.718468888890544E9, 0.0, 2024-06-15 11:28:08.890
105.0, 48761.64928217522, 68483.0180982373, -9315.871812805153, -187500.02235174447, 72811.81339166325, -187500.02235174447, -187500.02235174447, -187500.02235174447, -0.246, 0.9520000000000001, 0.1, 192.0, 0.0, 0.0, 0.0, 0.0, 0.0, 0.0, 0.0, 0.0, 0.0, 1.7184688888905528E9, 0.0, 2024-06-15 11:28:08.890
106.0, 48408.044684892266, 68098.50103837265, -8249.403029609088, -187500.02235174447, 72982.31249836832, -187500.02235174447, -187500.02235174447, -187500.02235174447, -0.246, 0.9520000000000001, 0.1, 192.0, 0.0, 0.0, 0.0, 0.0, 0.0, 0.0, 0.0, 0.0, 0.0, 1.7184688888905623E9, 0.0, 2024-06-15 11:28:08.890
107.0, 48342.41996317148, 68051.18239536077, -6950.431400588918, -187500.02235174447, 72775.22358598991, -187500.02235174447, -187500.02235174447, -187500.02235174447, -0.246, 0.9520000000000001, 0.1, 192.0, 0.0, 0.0, 0.0, 0.0, 0.0, 0.0, 0.0, 0.0, 0.0, 1.718468888890571E9, 0.0, 2024-06-15 11:28:08.890
108.0, 48704.227650669534, 68447.30001059771, -7903.666246374399, -187500.02235174447, 72489.63534708445, -187500.02235174447, -187500.02235174447, -187500.02235174447, -0.246, 0.9520000000000001, 0.1, 192.0, 0.0, 0.0, 0.0, 0.0, 0.0, 0.0, 0.0, 0.0, 0.0, 1.7184688888905804E9, 0.0, 2024-06-15 11:28:08.890
109.0, 48804.27405885149, 68540.3279710207, -9254.06923938623, -187500.02235174447, 72769.85916732064, -187500.02235174447, -187500.02235174447, -187500.02235174447, -0.246, 0.9520000000000001, 0.1, 192.0, 0.0, 0.0, 0.0, 0.0, 0.0, 0.0, 0.0, 0.0, 0.0, 1.71846888889059E9, 0.0, 2024-06-15 11:28:08.890
110.0, 48501.89965986009, 68198.50274306569, -8523.077788719867, -187500.02235174447, 72985.3299838698, -187500.02235174447, -187500.02235174447, -187500.02235174447, -0.246, 0.9520000000000001, 0.10200000000000001, 192.0, 248.0, 80.0, 29.0, 192.0, 3.0, 48.0, 0.0, 0.0, 0.0, 1.718468888890599E9, 0.0, 2024-06-15 11:28:08.890
111.0, 48321.699896061415, 68030.52938348406, -7039.994840621333, -187500.02235174447, 72849.56548804826, -187500.02235174447, -187500.02235174447, -187500.02235174447, -0.246, 0.9520000000000001, 0.10200000000000001, 192.0, 0.0, 0.0, 0.0, 0.0, 0.0, 0.0, 0.0, 0.0, 0.0, 1.718468888890608E9, 0.0, 2024-06-15 11:28:08.890
112.0, 48625.460103209036, 68365.44792240238, -7527.821663358411, -187500.02235174447, 72463.93084096085, -187500.02235174447, -187500.02235174447, -187500.02235174447, -0.246, 0.9520000000000001, 0.10200000000000001, 192.0, 0.0, 0.0, 0.0, 0.0, 0.0, 0.0, 0.0, 0.0, 0.0, 1.7184688888906171E9, 0.0, 2024-06-15 11:28:08.890
113.0, 48819.96498345912, 68567.55239576727, -9113.856746418089, -187500.02235174447, 72696.47839027386, -187500.02235174447, -187500.02235174447, -187500.02235174447, -0.246, 0.9520000000000001, 0.10200000000000001, 192.0, 0.0, 0.0, 0.0, 0.0, 0.0, 0.0, 0.0, 0.0, 0.0, 1.7184688888906262E9, 0.0, 2024-06-15 11:28:08.890
114.0, 48551.09584940623, 68249.06238902359, -8747.913986195801, -187500.02235174447, 72944.40393977212, -187500.02235174447, -187500.02235174447, -187500.02235174447, -0.246, 0.9520000000000001, 0.10200000000000001, 192.0, 0.0, 0.0, 0.0, 0.0, 0.0, 0.0, 0.0, 0.0, 0.0, 1.7184688888906353E9, 0.0, 2024-06-15 11:28:08.890
115.0, 48326.57257635267, 68033.56922072997, -7241.652279097114, -187500.02235174447, 72922.47687846147, -187500.02235174447, -187500.02235174447, -187500.02235174447, -0.246, 0.9520000000000001, 0.10200000000000001, 192.0, 0.0, 0.0, 0.0, 0.0, 0.0, 0.0, 0.0, 0.0, 0.0, 1.7184688888906443E9, 0.0, 2024-06-15 11:28:08.890
116.0, 48583.8188032888, 68309.81443045312, -7244.133322731653, -187500.02235174447, 72524.05703354563, -187500.02235174447, -187500.02235174447, -187500.02235174447, -0.246, 0.9520000000000001, 0.10200000000000001, 192.0, 0.0, 0.0, 0.0, 0.0, 0.0, 0.0, 0.0, 0.0, 0.0, 1.7184688888906531E9, 0.0, 2024-06-15 11:28:08.890
117.0, 48830.693820797664, 68580.38229708461, -8902.945685737812, -187500.02235174447, 72640.73313960232, -187500.02235174447, -187500.02235174447, -187500.02235174447, -0.246, 0.9520000000000001, 0.10200000000000001, 192.0, 0.0, 0.0, 0.0, 0.0, 0.0, 0.0, 0.0, 0.0, 0.0, 1.7184688888906627E9, 0.0, 2024-06-15 11:28:08.890
118.0, 48601.543736641856, 68306.1710961069, -8906.209040428286, -187500.02235174447, 72903.36613695219, -187500.02235174447, -187500.02235174447, -187500.02235174447, -0.246, 0.9520000000000001, 0.10200000000000001, 192.0, 0.0, 0.0, 0.0, 0.0, 0.0, 0.0, 0.0, 0.0, 0.0, 1.7184688888906715E9, 0.0, 2024-06-15 11:28:08.890
119.0, 48315.41905586947, 68026.55077297101, -7433.877281412755, -187500.02235174447, 72941.07352984829, -187500.02235174447, -187500.02235174447, -187500.02235174447, -0.246, 0.9520000000000001, 0.10200000000000001, 192.0, 0.0, 0.0, 0.0, 0.0, 0.0, 0.0, 0.0, 0.0, 0.0, 1.718468888890681E9, 0.0, 2024-06-15 11:28:08.890
120.0, 48510.862709386674, 68233.01383650469, -6995.179592988443, -187500.02235174447, 72570.05692363465, -187500.02235174447, -187500.02235174447, -187500.02235174447, -0.246, 0.9520000000000001, 0.10200000000000001, 192.0, 0.0, 0.0, 0.0, 0.0, 0.0, 0.0, 0.0, 0.0, 0.0, 1.71846888889069E9, 0.0, 2024-06-15 11:28:08.890
121.0, 48815.94166945716, 68568.75938996785, -8585.617969705818, -187500.02235174447, 72578.41647606093, -187500.02235174447, -187500.02235174447, -187500.02235174447, -0.244, 0.9500000000000001, 0.10400000000000001, 192.0, 248.0, 96.0, 29.0, 176.0, 3.0, 64.0, 0.0, 0.0, 0.0, 1.7184688888906991E9, 0.0, 2024-06-15 11:28:08.890
122.0, 48692.694150530595, 68402.23889377581, -9016.380788848495, -187500.02235174447, 72884.18834020953, -187500.02235174447, -187500.02235174447, -187500.02235174447, -0.244, 0.9500000000000001, 0.10400000000000001, 192.0, 0.0, 0.0, 0.0, 0.0, 0.0, 0.0, 0.0, 0.0, 0.0, 1.7184688893696845E9, 0.0, 2024-06-15 11:28:09.369
123.0, 48363.31884423719, 68069.95786070322, -7692.28579906056, -187500.02235174447, 72985.84407399227, -187500.02235174447, -187500.02235174447, -187500.02235174447, -0.244, 0.9500000000000001, 0.10400000000000001, 192.0, 0.0, 0.0, 0.0, 0.0, 0.0, 0.0, 0.0, 0.0, 0.0, 1.7184688893698752E9, 0.0, 2024-06-15 11:28:09.369
124.0, 48428.809455491246, 68153.70984717725, -6839.678506812872, -187500.02235174447, 72625.26573243925, -187500.02235174447, -187500.02235174447, -187500.02235174447, -0.244, 0.9500000000000001, 0.10400000000000001, 192.0, 0.0, 0.0, 0.0, 0.0, 0.0, 0.0, 0.0, 0.0, 0.0, 1.718468889369887E9, 0.0, 2024-06-15 11:28:09.369
125.0, 48774.99327361504, 68532.03547382778, -8239.232985881923, -187500.02235174447, 72512.32236770658, -187500.02235174447, -187500.02235174447, -187500.02235174447, -0.244, 0.9500000000000001, 0.10400000000000001, 192.0, 0.0, 0.0, 0.0, 0.0, 0.0, 0.0, 0.0, 0.0, 0.0, 1.7184688893698964E9, 0.0, 2024-06-15 11:28:09.369
126.0, 48743.58907265533, 68463.63913579454, -9082.9442838364, -187500.02235174447, 72833.91926692954, -187500.02235174447, -187500.02235174447, -187500.02235174447, -0.244, 0.9500000000000001, 0.10400000000000001, 192.0, 0.0, 0.0, 0.0, 0.0, 0.0, 0.0, 0.0, 0.0, 0.0, 1.718468889369906E9, 0.0, 2024-06-15 11:28:09.369
127.0, 48408.08938838117, 68112.31441644602, -8022.0187332652495, -187500.02235174447, 72989.10742868274, -187500.02235174447, -187500.02235174447, -187500.02235174447, -0.244, 0.9500000000000001, 0.10400000000000001, 192.0, 0.0, 0.0, 0.0, 0.0, 0.0, 0.0, 0.0, 0.0, 0.0, 1.7184688893699152E9, 0.0, 2024-06-15 11:28:09.369
128.0, 48375.5676001987, 68090.9685004912, -6791.734014956238, -187500.02235174447, 72726.67559703298, -187500.02235174447, -187500.02235174447, -187500.02235174447, -0.244, 0.9500000000000001, 0.10400000000000001, 192.0, 0.0, 0.0, 0.0, 0.0, 0.0, 0.0, 0.0, 0.0, 0.0, 1.7184688893699243E9, 0.0, 2024-06-15 11:28:09.369
129.0, 48719.896223532705, 68475.30674640021, -7778.1835530023045, -187500.02235174447, 72482.92982374785, -187500.02235174447, -187500.02235174447, -187500.02235174447, -0.244, 0.9500000000000001, 0.10400000000000001, 192.0, 0.0, 0.0, 0.0, 0.0, 0.0, 0.0, 0.0, 0.0, 0.0, 1.7184688893699331E9, 0.0, 2024-06-15 11:28:09.369
130.0, 48783.88926790825, 68518.80324111023, -9019.845309239068, -187500.02235174447, 72772.8766528221, -187500.02235174447, -187500.02235174447, -187500.02235174447, -0.244, 0.9500000000000001, 0.10400000000000001, 192.0, 0.0, 0.0, 0.0, 0.0, 0.0, 0.0, 0.0, 0.0, 0.0, 1.7184688893699424E9, 0.0, 2024-06-15 11:28:09.369
131.0, 48502.16788079356, 68203.3977751014, -8444.153779048178, -187500.02235174447, 72985.68761178108, -187500.02235174447, -187500.02235174447, -187500.02235174447, -0.246, 0.9460000000000001, 0.108, 192.0, 248.0, 80.0, 29.0, 144.0, 3.0, 96.0, 0.0, 0.0, 0.0, 1.7184688893699512E9, 0.0, 2024-06-15 11:28:09.369
132.0, 48346.778553340264, 68062.87235771089, -7040.1065993436105, -187500.02235174447, 72826.00674939237, -187500.02235174447, -187500.02235174447, -187500.02235174447, -0.246, 0.9460000000000001, 0.108, 192.0, 0.0, 0.0, 0.0, 0.0, 0.0, 0.0, 0.0, 0.0, 0.0, 1.7184688893699603E9, 0.0, 2024-06-15 11:28:09.369
133.0, 48643.92264412912, 68393.87934134953, -7451.892787443732, -187500.02235174447, 72474.21264341028, -187500.02235174447, -187500.02235174447, -187500.02235174447, -0.246, 0.9460000000000001, 0.108, 192.0, 0.0, 0.0, 0.0, 0.0, 0.0, 0.0, 0.0, 0.0, 0.0, 1.7184688893699696E9, 0.0, 2024-06-15 11:28:09.369
134.0, 48785.78916618695, 68533.55539245074, -8881.040976171611, -187500.02235174447, 72710.04589915823, -187500.02235174447, -187500.02235174447, -187500.02235174447, -0.246, 0.9460000000000001, 0.108, 192.0, 0.0, 0.0, 0.0, 0.0, 0.0, 0.0, 0.0, 0.0, 0.0, 1.718468889369979E9, 0.0, 2024-06-15 11:28:09.369
135.0, 48544.94911968102, 68252.59396464753, -8554.325527468387, -187500.02235174447, 72959.24549809044, -187500.02235174447, -187500.02235174447, -187500.02235174447, -0.246, 0.9460000000000001, 0.108, 192.0, 0.0, 0.0, 0.0, 0.0, 0.0, 0.0, 0.0, 0.0, 0.0, 1.718468889369988E9, 0.0, 2024-06-15 11:28:09.369
136.0, 48341.14591373753, 68057.39618031934, -7125.9820015409, -187500.02235174447, 72899.38752643914, -187500.02235174447, -187500.02235174447, -187500.02235174447, -0.246, 0.9460000000000001, 0.108, 192.0, 0.0, 0.0, 0.0, 0.0, 0.0, 0.0, 0.0, 0.0, 0.0, 1.7184688893699968E9, 0.0, 2024-06-15 11:28:09.369
137.0, 48582.47769862148, 68318.33044509059, -7118.270649703819, -187500.02235174447, 72498.08430648856, -187500.02235174447, -187500.02235174447, -187500.02235174447, -0.246, 0.9460000000000001, 0.108, 192.0, 0.0, 0.0, 0.0, 0.0, 0.0, 0.0, 0.0, 0.0, 0.0, 1.718468889370006E9, 0.0, 2024-06-15 11:28:09.370
138.0, 48794.975733158084, 68547.50288099085, -8669.10173524639, -187500.02235174447, 72657.899279344, -187500.02235174447, -187500.02235174447, -187500.02235174447, -0.246, 0.9460000000000001, 0.108, 192.0, 0.0, 0.0, 0.0, 0.0, 0.0, 0.0, 0.0, 0.0, 0.0, 1.718468889370015E9, 0.0, 2024-06-15 11:28:09.370
139.0, 48601.7225505975, 68308.89800893045, -8723.036494617045, -187500.02235174447, 72926.09786106323, -187500.02235174447, -187500.02235174447, -187500.02235174447, -0.246, 0.9460000000000001, 0.108, 192.0, 0.0, 0.0, 0.0, 0.0, 0.0, 0.0, 0.0, 0.0, 0.0, 1.718468889370024E9, 0.0, 2024-06-15 11:28:09.370
140.0, 48326.796093797224, 68039.44772952172, -7385.999844789487, -187500.02235174447, 72952.67408522058, -187500.02235174447, -187500.02235174447, -187500.02235174447, -0.246, 0.9460000000000001, 0.108, 192.0, 0.0, 0.0, 0.0, 0.0, 0.0, 0.0, 0.0, 0.0, 0.0, 1.718468889370033E9, 0.0, 2024-06-15 11:28:09.370
141.0, 48487.393377708606, 68218.37344388646, -6821.484186826252, -187500.02235174447, 72555.7741589277, -187500.02235174447, -187500.02235174447, -187500.02235174447, -0.23800000000000002, 0.9540000000000001, 0.11, 192.0, 248.0, 144.0, 29.0, 208.0, 3.0, 112.0, 0.0, 0.0, 0.0, 1.718468889370042E9, 0.0, 2024-06-15 11:28:09.370
142.0, 48761.69398566413, 68519.74201437736, -8241.512863816364, -187500.02235174447, 72597.2366448923, -187500.02235174447, -187500.02235174447, -187500.02235174447, -0.23800000000000002, 0.9540000000000001, 0.11, 192.0, 0.0, 0.0, 0.0, 0.0, 0.0, 0.0, 0.0, 0.0, 0.0, 1.7184688893700511E9, 0.0, 2024-06-15 11:28:09.370
143.0, 48689.72136851804, 68402.12713505354, -8864.120705618943, -187500.02235174447, 72842.36822633365, -187500.02235174447, -187500.02235174447, -187500.02235174447, -0.23800000000000002, 0.9540000000000001, 0.11, 192.0, 0.0, 0.0, 0.0, 0.0, 0.0, 0.0, 0.0, 0.0, 0.0, 1.71846888937006E9, 0.0, 2024-06-15 11:28:09.370
144.0, 48474.7422903469, 68190.83609471752, -8539.081637749869, -187500.02235174447, 72971.4719023075, -187500.02235174447, -187500.02235174447, -187500.02235174447, -0.23800000000000002, 0.9540000000000001, 0.11, 192.0, 0.0, 0.0, 0.0, 0.0, 0.0, 0.0, 0.0, 0.0, 0.0, 1.718468889370069E9, 0.0, 2024-06-15 11:28:09.370
145.0, 48408.58112675919, 68127.87123058691, -7175.826391676234, -187500.02235174447, 72700.12172462008, -187500.02235174447, -187500.02235174447, -187500.02235174447, -0.23800000000000002, 0.9540000000000001, 0.11, 192.0, 0.0, 0.0, 0.0, 0.0, 0.0, 0.0, 0.0, 0.0, 0.0, 1.718468889370078E9, 0.0, 2024-06-15 11:28:09.370
146.0, 48665.5367810174, 68430.62560923405, -7721.43247383028, -187500.02235174447, 72516.36803345299, -187500.02235174447, -187500.02235174447, -187500.02235174447, -0.23800000000000002, 0.9540000000000001, 0.11, 192.0, 0.0, 0.0, 0.0, 0.0, 0.0, 0.0, 0.0, 0.0, 0.0, 1.7184688893700871E9, 0.0, 2024-06-15 11:28:09.370
147.0, 48699.95846747857, 68432.16787960147, -8707.747901409615, -187500.02235174447, 72765.54528064076, -187500.02235174447, -187500.02235174447, -187500.02235174447, -0.23800000000000002, 0.9540000000000001, 0.11, 192.0, 0.0, 0.0, 0.0, 0.0, 0.0, 0.0, 0.0, 0.0, 0.0, 1.718468889370096E9, 0.0, 2024-06-15 11:28:09.370
148.0, 48532.09686661922, 68258.42776995037, -8752.697259509237, -187500.02235174447, 72952.83054743177, -187500.02235174447, -187500.02235174447, -187500.02235174447, -0.23800000000000002, 0.9540000000000001, 0.11, 192.0, 0.0, 0.0, 0.0, 0.0, 0.0, 0.0, 0.0, 0.0, 0.0, 1.718468889370105E9, 0.0, 2024-06-15 11:28:09.370
149.0, 48395.01361787482, 68119.31051246054, -7455.178493878662, -187500.02235174447, 72790.75804838634, -187500.02235174447, -187500.02235174447, -187500.02235174447, -0.23800000000000002, 0.9540000000000001, 0.11, 192.0, 0.0, 0.0, 0.0, 0.0, 0.0, 0.0, 0.0, 0.0, 0.0, 1.718468889370114E9, 0.0, 2024-06-15 11:28:09.370
150.0, 48560.39417509964, 68319.69390150237, -7067.263968856808, -187500.02235174447, 72521.93361782237, -187500.02235174447, -187500.02235174447, -187500.02235174447, -0.23800000000000002, 0.9540000000000001, 0.11, 192.0, 0.0, 0.0, 0.0, 0.0, 0.0, 0.0, 0.0, 0.0, 0.0, 1.718468889370123E9, 0.0, 2024-06-15 11:28:09.370
151.0, 48695.39871160969, 68435.56534475868, -8173.116525783125, -187500.02235174447, 72691.73982044934, -187500.02235174447, -187500.02235174447, -187500.02235174447, -0.24, 0.9540000000000001, 0.11800000000000001, 192.0, 248.0, 128.0, 29.0, 208.0, 3.0, 176.0, 0.0, 0.0, 0.0, 1.718468889370132E9, 0.0, 2024-06-15 11:28:09.370
152.0, 48583.05884397732, 68307.5792560076, -8671.582778880927, -187500.02235174447, 72905.82482884226, -187500.02235174447, -187500.02235174447, -187500.02235174447, -0.24, 0.9540000000000001, 0.11800000000000001, 192.0, 0.0, 0.0, 0.0, 0.0, 0.0, 0.0, 0.0, 0.0, 0.0, 1.7184688893701413E9, 0.0, 2024-06-15 11:28:09.370
153.0, 48445.26033941035, 68172.95469915327, -7748.34397415447, -187500.02235174447, 72877.86279652867, -187500.02235174447, -187500.02235174447, -187500.02235174447, -0.24, 0.9540000000000001, 0.11800000000000001, 192.0, 0.0, 0.0, 0.0, 0.0, 0.0, 0.0, 0.0, 0.0, 0.0, 1.71846888937015E9, 0.0, 2024-06-15 11:28:09.370
154.0, 48523.69261070402, 68280.57834870557, -6916.121472850022, -187500.02235174447, 72561.20563283034, -187500.02235174447, -187500.02235174447, -187500.02235174447, -0.24, 0.9540000000000001, 0.11800000000000001, 192.0, 0.0, 0.0, 0.0, 0.0, 0.0, 0.0, 0.0, 0.0, 0.0, 1.7184688893701596E9, 0.0, 2024-06-15 11:28:09.370
155.0, 48675.05862415536, 68425.19413533142, -7853.106600416494, -187500.02235174447, 72640.91195355797, -187500.02235174447, -187500.02235174447, -187500.02235174447, -0.24, 0.9540000000000001, 0.11800000000000001, 192.0, 0.0, 0.0, 0.0, 0.0, 0.0, 0.0, 0.0, 0.0, 0.0, 1.7184688893701687E9, 0.0, 2024-06-15 11:28:09.370
156.0, 48632.83617887928, 68362.87747179002, -8656.741220562604, -187500.02235174447, 72851.55479330478, -187500.02235174447, -187500.02235174447, -187500.02235174447, -0.24, 0.9540000000000001, 0.11800000000000001, 192.0, 0.0, 0.0, 0.0, 0.0, 0.0, 0.0, 0.0, 0.0, 0.0, 1.7184688893701775E9, 0.0, 2024-06-15 11:28:09.370
157.0, 48513.20964255448, 68246.49193841123, -8263.01524198237, -187500.02235174447, 72941.7217304375, -187500.02235174447, -187500.02235174447, -187500.02235174447, -0.24, 0.9540000000000001, 0.11800000000000001, 192.0, 0.0, 0.0, 0.0, 0.0, 0.0, 0.0, 0.0, 0.0, 0.0, 1.7184688893701866E9, 0.0, 2024-06-15 11:28:09.370
158.0, 48483.28065672883, 68233.34911267151, -6950.856083733569, -187500.02235174447, 72621.60004634858, -187500.02235174447, -187500.02235174447, -187500.02235174447, -0.24, 0.9540000000000001, 0.11800000000000001, 192.0, 0.0, 0.0, 0.0, 0.0, 0.0, 0.0, 0.0, 0.0, 0.0, 1.718468889370196E9, 0.0, 2024-06-15 11:28:09.370
159.0, 48691.665970285656, 68450.71982749937, -7747.58401484299, -187500.02235174447, 72612.77110728873, -187500.02235174447, -187500.02235174447, -187500.02235174447, -0.24, 0.9540000000000001, 0.11800000000000001, 192.0, 0.0, 0.0, 0.0, 0.0, 0.0, 0.0, 0.0, 0.0, 0.0, 1.718468889370205E9, 0.0, 2024-06-15 11:28:09.370
160.0, 48712.564851351366, 68444.2601733518, -8995.168983360409, -187500.02235174447, 72806.04664159377, -187500.02235174447, -187500.02235174447, -187500.02235174447, -0.24, 0.9540000000000001, 0.11800000000000001, 192.0, 0.0, 0.0, 0.0, 0.0, 0.0, 0.0, 0.0, 0.0, 0.0, 1.718468889370214E9, 0.0, 2024-06-15 11:28:09.370
161.0, 48704.250002413995, 68448.77522573176, -10168.792029475217, -187500.02235174447, 72941.58761997076, -187500.02235174447, -187500.02235174447, -187500.02235174447, -0.24, 0.9540000000000001, 0.11800000000000001, 192.0, 0.0, 0.0, 0.0, 0.0, 0.0, 0.0, 0.0, 0.0, 0.0, 1.718468889370223E9, 0.0, 2024-06-15 11:28:09.370
162.0, 48495.97644757944, 68236.32189468406, -8691.833459357436, -187500.02235174447, 72832.35464481768, -187500.02235174447, -187500.02235174447, -187500.02235174447, -0.23600000000000002, 0.9500000000000001, 0.11800000000000001, 192.0, 248.0, 160.0, 29.0, 176.0, 3.0, 176.0, 0.0, 0.0, 0.0, 1.718468889370232E9, 0.0, 2024-06-15 11:28:09.370
163.0, 48438.7336300294, 68194.05474591909, -7109.464062388428, -187500.02235174447, 72675.17717780796, -187500.02235174447, -187500.02235174447, -187500.02235174447, -0.23600000000000002, 0.9500000000000001, 0.11800000000000001, 192.0, 0.0, 0.0, 0.0, 0.0, 0.0, 0.0, 0.0, 0.0, 0.0, 1.7184688893702416E9, 0.0, 2024-06-15 11:28:09.370
164.0, 48573.11231769471, 68304.31590131711, -7701.561773009512, -187500.02235174447, 72667.68934341542, -187500.02235174447, -187500.02235174447, -187500.02235174447, -0.23600000000000002, 0.9500000000000001, 0.11800000000000001, 192.0, 0.0, 0.0, 0.0, 0.0, 0.0, 0.0, 0.0, 0.0, 0.0, 1.7184688893702507E9, 0.0, 2024-06-15 11:28:09.370
165.0, 48709.21208968307, 68460.35342935962, -9668.96231996564, -187500.02235174447, 72829.9406564165, -187500.02235174447, -187500.02235174447, -187500.02235174447, -0.23600000000000002, 0.9500000000000001, 0.11800000000000001, 192.0, 0.0, 0.0, 0.0, 0.0, 0.0, 0.0, 0.0, 0.0, 0.0, 1.71846888937026E9, 0.0, 2024-06-15 11:28:09.370
166.0, 48537.12600912166, 68280.98068010577, -8825.899222600368, -187500.02235174447, 72842.01059842236, -187500.02235174447, -187500.02235174447, -187500.02235174447, -0.23600000000000002, 0.9500000000000001, 0.11800000000000001, 192.0, 0.0, 0.0, 0.0, 0.0, 0.0, 0.0, 0.0, 0.0, 0.0, 1.7184688893702688E9, 0.0, 2024-06-15 11:28:09.370
167.0, 48437.54898757327, 68201.7437460117, -6976.292368923709, -187500.02235174447, 72681.12274183307, -187500.02235174447, -187500.02235174447, -187500.02235174447, -0.23600000000000002, 0.9500000000000001, 0.11800000000000001, 192.0, 0.0, 0.0, 0.0, 0.0, 0.0, 0.0, 0.0, 0.0, 0.0, 1.718468889370278E9, 0.0, 2024-06-15 11:28:09.370
168.0, 48550.89468370613, 68282.32178477308, -7201.754415244391, -187500.02235174447, 72646.58929664962, -187500.02235174447, -187500.02235174447, -187500.02235174447, -0.23600000000000002, 0.9500000000000001, 0.11800000000000001, 192.0, 0.0, 0.0, 0.0, 0.0, 0.0, 0.0, 0.0, 0.0, 0.0, 1.7184688893702867E9, 0.0, 2024-06-15 11:28:09.370
169.0, 48719.471540388055, 68461.24749913783, -9233.930317631999, -187500.02235174447, 72793.79788563227, -187500.02235174447, -187500.02235174447, -187500.02235174447, -0.23600000000000002, 0.9500000000000001, 0.11800000000000001, 192.0, 0.0, 0.0, 0.0, 0.0, 0.0, 0.0, 0.0, 0.0, 0.0, 1.718468889370296E9, 0.0, 2024-06-15 11:28:09.370
170.0, 48586.724530067986, 68321.41498582542, -9028.338972132084, -187500.02235174447, 72867.87156675715, -187500.02235174447, -187500.02235174447, -187500.02235174447, -0.23600000000000002, 0.9500000000000001, 0.11800000000000001, 192.0, 0.0, 0.0, 0.0, 0.0, 0.0, 0.0, 0.0, 0.0, 0.0, 1.7184688893703048E9, 0.0, 2024-06-15 11:28:09.370
171.0, 48434.12917067161, 68191.95368194029, -6990.530430141739, -187500.02235174447, 72707.02841365676, -187500.02235174447, -187500.02235174447, -187500.02235174447, -0.23600000000000002, 0.9500000000000001, 0.11800000000000001, 192.0, 0.0, 0.0, 0.0, 0.0, 0.0, 0.0, 0.0, 0.0, 0.0, 1.718468889370314E9, 0.0, 2024-06-15 11:28:09.370
172.0, 48506.057084328786, 68244.27911571016, -6823.361733360498, -187500.02235174447, 72648.10921527258, -187500.02235174447, -187500.02235174447, -187500.02235174447, -0.232, 0.9500000000000001, 0.116, 192.0, 248.0, 192.0, 29.0, 176.0, 3.0, 160.0, 0.0, 0.0, 0.0, 1.718468889370323E9, 0.0, 2024-06-15 11:28:09.370
173.0, 48692.492984830504, 68442.11440588409, -8753.412515331807, -187500.02235174447, 72770.26149872084, -187500.02235174447, -187500.02235174447, -187500.02235174447, -0.232, 0.9500000000000001, 0.116, 192.0, 0.0, 0.0, 0.0, 0.0, 0.0, 0.0, 0.0, 0.0, 0.0, 1.718468889370332E9, 0.0, 2024-06-15 11:28:09.370
174.0, 48632.83617887928, 68376.42262892994, -9226.621297195114, -187500.02235174447, 72909.62462539967, -187500.02235174447, -187500.02235174447, -187500.02235174447, -0.232, 0.9500000000000001, 0.116, 192.0, 0.0, 0.0, 0.0, 0.0, 0.0, 0.0, 0.0, 0.0, 0.0, 1.7184688893703408E9, 0.0, 2024-06-15 11:28:09.370
175.0, 48444.34391788768, 68202.05667043409, -7135.4367894454945, -187500.02235174447, 72752.38010315658, -187500.02235174447, -187500.02235174447, -187500.02235174447, -0.232, 0.9500000000000001, 0.116, 192.0, 0.0, 0.0, 0.0, 0.0, 0.0, 0.0, 0.0, 0.0, 0.0, 1.71846888937035E9, 0.0, 2024-06-15 11:28:09.370
176.0, 48501.81025288228, 68243.63091512096, -6601.520669641575, -187500.02235174447, 72663.68838115793, -187500.02235174447, -187500.02235174447, -187500.02235174447, -0.232, 0.9500000000000001, 0.116, 192.0, 0.0, 0.0, 0.0, 0.0, 0.0, 0.0, 0.0, 0.0, 0.0, 1.7184688893703587E9, 0.0, 2024-06-15 11:28:09.370
177.0, 48656.05964136835, 68393.49936169379, -8243.949203961993, -187500.02235174447, 72708.414221813, -187500.02235174447, -187500.02235174447, -187500.02235174447, -0.232, 0.9500000000000001, 0.116, 192.0, 0.0, 0.0, 0.0, 0.0, 0.0, 0.0, 0.0, 0.0, 0.0, 1.7184688893703675E9, 0.0, 2024-06-15 11:28:09.370
178.0, 48687.597952794786, 68426.95992314338, -9329.70754262299, -187500.02235174447, 72898.04642177183, -187500.02235174447, -187500.02235174447, -187500.02235174447, -0.232, 0.9500000000000001, 0.116, 192.0, 0.0, 0.0, 0.0, 0.0, 0.0, 0.0, 0.0, 0.0, 0.0, 1.7184688893703768E9, 0.0, 2024-06-15 11:28:09.370
179.0, 48458.67138608353, 68207.53284782563, -7324.979582426498, -187500.02235174447, 72769.43448417599, -187500.02235174447, -187500.02235174447, -187500.02235174447, -0.232, 0.9500000000000001, 0.116, 192.0, 0.0, 0.0, 0.0, 0.0, 0.0, 0.0, 0.0, 0.0, 0.0, 1.718468889370386E9, 0.0, 2024-06-15 11:28:09.370
180.0, 48472.46241241246, 68221.14506019892, -6388.173268815669, -187500.02235174447, 72647.66218038347, -187500.02235174447, -187500.02235174447, -187500.02235174447, -0.232, 0.9500000000000001, 0.116, 192.0, 0.0, 0.0, 0.0, 0.0, 0.0, 0.0, 0.0, 0.0, 0.0, 1.7184688893703947E9, 0.0, 2024-06-15 11:28:09.370
181.0, 48638.26765278193, 68376.22146322984, -7744.119494452417, -187500.02235174447, 72681.48036974436, -187500.02235174447, -187500.02235174447, -187500.02235174447, -0.232, 0.9500000000000001, 0.116, 192.0, 0.0, 0.0, 0.0, 0.0, 0.0, 0.0, 0.0, 0.0, 0.0, 1.7184688893704038E9, 0.0, 2024-06-15 11:28:09.370
182.0, 48705.59110708131, 68452.75383624481, -9339.721124138967, -187500.02235174447, 72879.56152910728, -187500.02235174447, -187500.02235174447, -187500.02235174447, -0.232, 0.9520000000000001, 0.114, 192.0, 248.0, 192.0, 29.0, 192.0, 3.0, 144.0, 0.0, 0.0, 0.0, 1.7184688893704128E9, 0.0, 2024-06-15 11:28:09.370
183.0, 48479.95024680498, 68229.14698471391, -7600.107204926873, -187500.02235174447, 72802.87269388112, -187500.02235174447, -187500.02235174447, -187500.02235174447, -0.232, 0.9520000000000001, 0.114, 192.0, 0.0, 0.0, 0.0, 0.0, 0.0, 0.0, 0.0, 0.0, 0.0, 1.7184688893704216E9, 0.0, 2024-06-15 11:28:09.370
184.0, 48464.32637743073, 68223.603752089, -6306.544698064888, -187500.02235174447, 72674.43957024092, -187500.02235174447, -187500.02235174447, -187500.02235174447, -0.232, 0.9520000000000001, 0.114, 192.0, 0.0, 0.0, 0.0, 0.0, 0.0, 0.0, 0.0, 0.0, 0.0, 1.7184688893704307E9, 0.0, 2024-06-15 11:28:09.370
185.0, 48606.930507055586, 68346.1807186819, -7289.507363975927, -187500.02235174447, 72667.9575643489, -187500.02235174447, -187500.02235174447, -187500.02235174447, -0.232, 0.9520000000000001, 0.114, 192.0, 0.0, 0.0, 0.0, 0.0, 0.0, 0.0, 0.0, 0.0, 0.0, 1.7184688893704398E9, 0.0, 2024-06-15 11:28:09.370
186.0, 48719.002153754496, 68470.52347308678, -9270.900102961077, -187500.02235174447, 72852.06888342726, -187500.02235174447, -187500.02235174447, -187500.02235174447, -0.232, 0.9520000000000001, 0.114, 192.0, 0.0, 0.0, 0.0, 0.0, 0.0, 0.0, 0.0, 0.0, 0.0, 1.7184688893704488E9, 0.0, 2024-06-15 11:28:09.370
187.0, 48505.94532560651, 68247.72128435627, -7965.066488393127, -187500.02235174447, 72830.85707793917, -187500.02235174447, -187500.02235174447, -187500.02235174447, -0.232, 0.9520000000000001, 0.114, 192.0, 0.0, 0.0, 0.0, 0.0, 0.0, 0.0, 0.0, 0.0, 0.0, 1.718468889370458E9, 0.0, 2024-06-15 11:28:09.370
188.0, 48417.43241756349, 68178.92261492283, -6275.855752927751, -187500.02235174447, 72654.16653801997, -187500.02235174447, -187500.02235174447, -187500.02235174447, -0.232, 0.9520000000000001, 0.114, 192.0, 0.0, 0.0, 0.0, 0.0, 0.0, 0.0, 0.0, 0.0, 0.0, 1.7184688893704667E9, 0.0, 2024-06-15 11:28:09.370
189.0, 48540.63523300114, 68277.49380797075, -6843.120675458989, -187500.02235174447, 72621.6894533264, -187500.02235174447, -187500.02235174447, -187500.02235174447, -0.232, 0.9520000000000001, 0.114, 192.0, 0.0, 0.0, 0.0, 0.0, 0.0, 0.0, 0.0, 0.0, 0.0, 1.7184688893704755E9, 0.0, 2024-06-15 11:28:09.370
190.0, 48720.79029331092, 68475.41850512249, -9020.314695872628, -187500.02235174447, 72802.7832869033, -187500.02235174447, -187500.02235174447, -187500.02235174447, -0.232, 0.9520000000000001, 0.114, 192.0, 0.0, 0.0, 0.0, 0.0, 0.0, 0.0, 0.0, 0.0, 0.0, 1.7184688893704846E9, 0.0, 2024-06-15 11:28:09.370
191.0, 48547.98895692694, 68291.57540697759, -8320.861556632704, -187500.02235174447, 72865.70344754499, -187500.02235174447, -187500.02235174447, -187500.02235174447, -0.232, 0.9520000000000001, 0.114, 192.0, 0.0, 0.0, 0.0, 0.0, 0.0, 0.0, 0.0, 0.0, 0.0, 1.718468889370494E9, 0.0, 2024-06-15 11:28:09.370
192.0, 48411.21863260492, 68179.03437364512, -6323.6884860621085, -187500.02235174447, 72686.33069829115, -187500.02235174447, -187500.02235174447, -187500.02235174447, -0.23, 0.9480000000000001, 0.11, 192.0, 248.0, 208.0, 29.0, 160.0, 3.0, 112.0, 0.0, 0.0, 0.0, 1.7184688893705032E9, 0.0, 2024-06-15 11:28:09.370
193.0, 48535.09200037623, 68277.53851145966, -6515.153529066269, -187500.02235174447, 72649.04798853969, -187500.02235174447, -187500.02235174447, -187500.02235174447, -0.23, 0.9480000000000001, 0.11, 192.0, 0.0, 0.0, 0.0, 0.0, 0.0, 0.0, 0.0, 0.0, 0.0, 1.718468889370512E9, 0.0, 2024-06-15 11:28:09.370
194.0, 48725.30534569089, 68483.53218835976, -8713.022913101067, -187500.02235174447, 72798.1341240566, -187500.02235174447, -187500.02235174447, -187500.02235174447, -0.23, 0.9480000000000001, 0.11, 192.0, 0.0, 0.0, 0.0, 0.0, 0.0, 0.0, 0.0, 0.0, 0.0, 1.7184688893705251E9, 0.0, 2024-06-15 11:28:09.370
195.0, 48597.36396042872, 68339.8775267455, -8689.307712233987, -187500.02235174447, 72909.22229399947, -187500.02235174447, -187500.02235174447, -187500.02235174447, -0.23, 0.9480000000000001, 0.11, 192.0, 0.0, 0.0, 0.0, 0.0, 0.0, 0.0, 0.0, 0.0, 0.0, 1.7184688893705344E9, 0.0, 2024-06-15 11:28:09.370
196.0, 48390.833841661675, 68155.34152452249, -6470.315929688923, -187500.02235174447, 72713.55512303772, -187500.02235174447, -187500.02235174447, -187500.02235174447, -0.23, 0.9480000000000001, 0.11, 192.0, 0.0, 0.0, 0.0, 0.0, 0.0, 0.0, 0.0, 0.0, 0.0, 1.7184688893705435E9, 0.0, 2024-06-15 11:28:09.370
197.0, 48487.5945434087, 68234.57845861655, -6228.157130260126, -187500.02235174447, 72636.41925292245, -187500.02235174447, -187500.02235174447, -187500.02235174447, -0.23, 0.9480000000000001, 0.11, 192.0, 0.0, 0.0, 0.0, 0.0, 0.0, 0.0, 0.0, 0.0, 0.0, 1.7184688893705523E9, 0.0, 2024-06-15 11:28:09.370
198.0, 48702.573621579846, 68458.16295840299, -8282.416556169577, -187500.02235174447, 72752.00012350084, -187500.02235174447, -187500.02235174447, -187500.02235174447, -0.23, 0.9480000000000001, 0.11, 192.0, 0.0, 0.0, 0.0, 0.0, 0.0, 0.0, 0.0, 0.0, 0.0, 1.7184688893705616E9, 0.0, 2024-06-15 11:28:09.370
199.0, 48642.29096678388, 68392.91821633794, -8943.24588099073, -187500.02235174447, 72912.15037252312, -187500.02235174447, -187500.02235174447, -187500.02235174447, -0.23, 0.9480000000000001, 0.11, 192.0, 0.0, 0.0, 0.0, 0.0, 0.0, 0.0, 0.0, 0.0, 0.0, 1.7184688893705704E9, 0.0, 2024-06-15 11:28:09.370
200.0, 48438.26424339584, 68203.46483033476, -6699.622476055918, -187500.02235174447, 72756.29165843627, -187500.02235174447, -187500.02235174447, -187500.02235174447, -0.23, 0.9480000000000001, 0.11, 192.0, 0.0, 0.0, 0.0, 0.0, 0.0, 0.0, 0.0, 0.0, 0.0, 1.7184688893705792E9, 0.0, 2024-06-15 11:28:09.370
201.0, 48484.66646488506, 68233.5055748827, -6057.166285177027, -187500.02235174447, 72644.30941871517, -187500.02235174447, -187500.02235174447, -187500.02235174447, -0.23, 0.9480000000000001, 0.11, 192.0, 0.0, 0.0, 0.0, 0.0, 0.0, 0.0, 0.0, 0.0, 0.0, 1.71846888937059E9, 0.0, 2024-06-15 11:28:09.370
202.0, 48672.01878690944, 68418.75683292828, -7806.503213227179, -187500.02235174447, 72697.32775656316, -187500.02235174447, -187500.02235174447, -187500.02235174447, -0.23, 0.9480000000000001, 0.11, 192.0, 0.0, 0.0, 0.0, 0.0, 0.0, 0.0, 0.0, 0.0, 0.0, 1.7184688893705993E9, 0.0, 2024-06-15 11:28:09.370
203.0, 48703.49004310251, 68453.24557462282, -9148.211377645895, -187500.02235174447, 72903.6567096301, -187500.02235174447, -187500.02235174447, -187500.02235174447, -0.228, 0.9480000000000001, 0.11, 192.0, 248.0, 224.0, 29.0, 160.0, 3.0, 112.0, 0.0, 0.0, 0.0, 1.718468889370608E9, 0.0, 2024-06-15 11:28:09.370
204.0, 48441.8852259976, 68199.70973726627, -7027.34375325963, -187500.02235174447, 72778.9786790584, -187500.02235174447, -187500.02235174447, -187500.02235174447, -0.228, 0.9480000000000001, 0.11, 192.0, 0.0, 0.0, 0.0, 0.0, 0.0, 0.0, 0.0, 0.0, 0.0, 1.7184688893706172E9, 0.0, 2024-06-15 11:28:09.370
205.0, 48449.30600515676, 68210.79620251611, -5939.08201921964, -187500.02235174447, 72649.74089261782, -187500.02235174447, -187500.02235174447, -187500.02235174447, -0.228, 0.9480000000000001, 0.11, 192.0, 0.0, 0.0, 0.0, 0.0, 0.0, 0.0, 0.0, 0.0, 0.0, 1.7184688893706262E9, 0.0, 2024-06-15 11:28:09.370
206.0, 48642.76035341744, 68392.4935331933, -7334.188501142085, -187500.02235174447, 72672.42791323995, -187500.02235174447, -187500.02235174447, -187500.02235174447, -0.228, 0.9480000000000001, 0.11, 192.0, 0.0, 0.0, 0.0, 0.0, 0.0, 0.0, 0.0, 0.0, 0.0, 1.7184688893706353E9, 0.0, 2024-06-15 11:28:09.370
207.0, 48740.862159831784, 68496.45149665493, -9244.815617181734, -187500.02235174447, 72898.71697410548, -187500.02235174447, -187500.02235174447, -187500.02235174447, -0.228, 0.9480000000000001, 0.11, 192.0, 0.0, 0.0, 0.0, 0.0, 0.0, 0.0, 0.0, 0.0, 0.0, 1.718468889370644E9, 0.0, 2024-06-15 11:28:09.370
208.0, 48474.585828135714, 68225.23542943424, -7452.8762641997655, -187500.02235174447, 72831.2370575949, -187500.02235174447, -187500.02235174447, -187500.02235174447, -0.228, 0.9480000000000001, 0.11, 192.0, 0.0, 0.0, 0.0, 0.0, 0.0, 0.0, 0.0, 0.0, 0.0, 1.7184688893706532E9, 0.0, 2024-06-15 11:28:09.370
209.0, 48413.8784901951, 68179.45905678977, -5903.654504257978, -187500.02235174447, 72660.98382007884, -187500.02235174447, -187500.02235174447, -187500.02235174447, -0.228, 0.9480000000000001, 0.11, 192.0, 0.0, 0.0, 0.0, 0.0, 0.0, 0.0, 0.0, 0.0, 0.0, 1.7184688893706825E9, 0.0, 2024-06-15 11:28:09.370
210.0, 48585.115204467205, 68332.0320644417, -6860.219759967299, -187500.02235174447, 72646.83516583862, -187500.02235174447, -187500.02235174447, -187500.02235174447, -0.228, 0.9480000000000001, 0.11, 192.0, 0.0, 0.0, 0.0, 0.0, 0.0, 0.0, 0.0, 0.0, 0.0, 1.718468889370692E9, 0.0, 2024-06-15 11:28:09.370
211.0, 48756.01664257248, 68520.01023531082, -9133.816854216679, -187500.02235174447, 72855.57810730673, -187500.02235174447, -187500.02235174447, -187500.02235174447, -0.228, 0.9480000000000001, 0.11, 192.0, 0.0, 0.0, 0.0, 0.0, 0.0, 0.0, 0.0, 0.0, 0.0, 1.7184688893707013E9, 0.0, 2024-06-15 11:28:09.370
212.0, 48519.110503090684, 68269.44717996684, -7888.020025255683, -187500.02235174447, 72865.65874405608, -187500.02235174447, -187500.02235174447, -187500.02235174447, -0.228, 0.9480000000000001, 0.11, 192.0, 0.0, 0.0, 0.0, 0.0, 0.0, 0.0, 0.0, 0.0, 0.0, 1.7184688893707273E9, 0.0, 2024-06-15 11:28:09.370
213.0, 48387.92811488249, 68157.82256815703, -5932.018867971763, -187500.02235174447, 72658.7486456333, -187500.02235174447, -187500.02235174447, -187500.02235174447, -0.222, 0.9540000000000001, 0.106, 192.0, 249.0, 16.0, 29.0, 208.0, 3.0, 80.0, 0.0, 0.0, 0.0, 1.718468889370736E9, 0.0, 2024-06-15 11:28:09.370
214.0, 48538.84709344472, 68285.20515980783, -6446.041935210459, -187500.02235174447, 72621.30947367067, -187500.02235174447, -187500.02235174447, -187500.02235174447, -0.222, 0.9540000000000001, 0.106, 192.0, 0.0, 0.0, 0.0, 0.0, 0.0, 0.0, 0.0, 0.0, 0.0, 1.7184688893707452E9, 0.0, 2024-06-15 11:28:09.370
215.0, 48744.63960464473, 68511.85184858464, -8870.80387721108, -187500.02235174447, 72811.81339166325, -187500.02235174447, -187500.02235174447, -187500.02235174447, -0.222, 0.9540000000000001, 0.106, 192.0, 0.0, 0.0, 0.0, 0.0, 0.0, 0.0, 0.0, 0.0, 0.0, 1.7184688893707545E9, 0.0, 2024-06-15 11:28:09.370
216.0, 48569.446631604034, 68322.24200037027, -8298.621570899675, -187500.02235174447, 72907.34474746523, -187500.02235174447, -187500.02235174447, -187500.02235174447, -0.222, 0.9540000000000001, 0.106, 192.0, 0.0, 0.0, 0.0, 0.0, 0.0, 0.0, 0.0, 0.0, 0.0, 1.7184688893707633E9, 0.0, 2024-06-15 11:28:09.370
217.0, 48397.36055104263, 68174.7428387097, -6052.785343263787, -187500.02235174447, 72719.07600391818, -187500.02235174447, -187500.02235174447, -187500.02235174447, -0.222, 0.9540000000000001, 0.106, 192.0, 0.0, 0.0, 0.0, 0.0, 0.0, 0.0, 0.0, 0.0, 0.0, 1.7184688893707724E9, 0.0, 2024-06-15 11:28:09.370
218.0, 48517.03179085634, 68273.60460443552, -6114.297344004792, -187500.02235174447, 72638.2967994567, -187500.02235174447, -187500.02235174447, -187500.02235174447, -0.222, 0.9540000000000001, 0.106, 192.0, 0.0, 0.0, 0.0, 0.0, 0.0, 0.0, 0.0, 0.0, 0.0, 1.7184688893707817E9, 0.0, 2024-06-15 11:28:09.370
219.0, 48757.62596817326, 68527.78864238127, -8538.411085416208, -187500.02235174447, 72789.99808907487, -187500.02235174447, -187500.02235174447, -187500.02235174447, -0.222, 0.9540000000000001, 0.106, 192.0, 0.0, 0.0, 0.0, 0.0, 0.0, 0.0, 0.0, 0.0, 0.0, 1.7184688893707905E9, 0.0, 2024-06-15 11:28:09.370
220.0, 48643.6320714512, 68401.12130655305, -8736.291079079041, -187500.02235174447, 72939.17363156959, -187500.02235174447, -187500.02235174447, -187500.02235174447, -0.222, 0.9540000000000001, 0.106, 192.0, 0.0, 0.0, 0.0, 0.0, 0.0, 0.0, 0.0, 0.0, 0.0, 1.7184688893707993E9, 0.0, 2024-06-15 11:28:09.370
221.0, 48407.48589128088, 68187.12570513794, -6303.9071922191615, -187500.02235174447, 72743.19353618546, -187500.02235174447, -187500.02235174447, -187500.02235174447, -0.222, 0.9540000000000001, 0.106, 192.0, 0.0, 0.0, 0.0, 0.0, 0.0, 0.0, 0.0, 0.0, 0.0, 1.7184688893708084E9, 0.0, 2024-06-15 11:28:09.370
222.0, 48478.229162481926, 68237.08185399555, -5904.034483913718, -187500.02235174447, 72628.99847376329, -187500.02235174447, -187500.02235174447, -187500.02235174447, -0.222, 0.9540000000000001, 0.106, 192.0, 0.0, 0.0, 0.0, 0.0, 0.0, 0.0, 0.0, 0.0, 0.0, 1.7184688893708172E9, 0.0, 2024-06-15 11:28:09.370
223.0, 48714.68826707462, 68480.42529588047, -8072.064289100682, -187500.02235174447, 72720.93119870797, -187500.02235174447, -187500.02235174447, -187500.02235174447, -0.224, 0.9580000000000001, 0.10400000000000001, 192.0, 249.0, 0.0, 29.0, 240.0, 3.0, 64.0, 0.0, 0.0, 0.0, 1.7184688893708262E9, 0.0, 2024-06-15 11:28:09.370
224.0, 48694.236420898014, 68450.83158622166, -9038.620774581525, -187500.02235174447, 72935.17266931209, -187500.02235174447, -187500.02235174447, -187500.02235174447, -0.224, 0.9580000000000001, 0.10400000000000001, 192.0, 0.0, 0.0, 0.0, 0.0, 0.0, 0.0, 0.0, 0.0, 0.0, 1.7184688893708353E9, 0.0, 2024-06-15 11:28:09.370
225.0, 48422.03687692129, 68190.88079820643, -6602.705312097706, -187500.02235174447, 72779.53747266978, -187500.02235174447, -187500.02235174447, -187500.02235174447, -0.224, 0.9580000000000001, 0.10400000000000001, 192.0, 0.0, 0.0, 0.0, 0.0, 0.0, 0.0, 0.0, 0.0, 0.0, 1.7184688893708441E9, 0.0, 2024-06-15 11:28:09.370
226.0, 48460.34776691768, 68223.6484555779, -5728.886214361932, -187500.02235174447, 72643.81768033716, -187500.02235174447, -187500.02235174447, -187500.02235174447, -0.224, 0.9580000000000001, 0.10400000000000001, 192.0, 0.0, 0.0, 0.0, 0.0, 0.0, 0.0, 0.0, 0.0, 0.0, 1.7184688893708532E9, 0.0, 2024-06-15 11:28:09.370
227.0, 48660.57469374832, 68420.54497248471, -7519.953849310143, -187500.02235174447, 72674.84190164112, -187500.02235174447, -187500.02235174447, -187500.02235174447, -0.224, 0.9580000000000001, 0.10400000000000001, 192.0, 0.0, 0.0, 0.0, 0.0, 0.0, 0.0, 0.0, 0.0, 0.0, 1.718468889370862E9, 0.0, 2024-06-15 11:28:09.370
228.0, 48703.199470424595, 68467.1036561851, -9117.924763908955, -187500.02235174447, 72887.56345362228, -187500.02235174447, -187500.02235174447, -187500.02235174447, -0.224, 0.9580000000000001, 0.10400000000000001, 192.0, 0.0, 0.0, 0.0, 0.0, 0.0, 0.0, 0.0, 0.0, 0.0, 1.7184688893708713E9, 0.0, 2024-06-15 11:28:09.370
229.0, 48437.25841489535, 68207.10816468098, -6907.851327401559, -187500.02235174447, 72804.01263284835, -187500.02235174447, -187500.02235174447, -187500.02235174447, -0.224, 0.9580000000000001, 0.10400000000000001, 192.0, 0.0, 0.0, 0.0, 0.0, 0.0, 0.0, 0.0, 0.0, 0.0, 1.7184688893708804E9, 0.0, 2024-06-15 11:28:09.370
230.0, 48421.72395249891, 68197.07223142055, -5584.717462625202, -187500.02235174447, 72646.32107571616, -187500.02235174447, -187500.02235174447, -187500.02235174447, -0.224, 0.9580000000000001, 0.10400000000000001, 192.0, 0.0, 0.0, 0.0, 0.0, 0.0, 0.0, 0.0, 0.0, 0.0, 1.7184688893708894E9, 0.0, 2024-06-15 11:28:09.370
231.0, 48625.19188227557, 68386.77148661274, -6980.919180025957, -187500.02235174447, 72655.21707000937, -187500.02235174447, -187500.02235174447, -187500.02235174447, -0.224, 0.9580000000000001, 0.10400000000000001, 192.0, 0.0, 0.0, 0.0, 0.0, 0.0, 0.0, 0.0, 0.0, 0.0, 1.7184688893708985E9, 0.0, 2024-06-15 11:28:09.370
232.0, 48732.86023531679, 68505.12397350359, -9115.823699930155, -187500.02235174447, 72874.97942149395, -187500.02235174447, -187500.02235174447, -187500.02235174447, -0.224, 0.9580000000000001, 0.10400000000000001, 192.0, 0.0, 0.0, 0.0, 0.0, 0.0, 0.0, 0.0, 0.0, 0.0, 1.7184688893709075E9, 0.0, 2024-06-15 11:28:09.370
233.0, 48462.3370721742, 68227.89528702442, -7308.8863264186775, -187500.02235174447, 72835.79681346379, -187500.02235174447, -187500.02235174447, -187500.02235174447, -0.222, 0.9560000000000001, 0.106, 192.0, 249.0, 16.0, 29.0, 224.0, 3.0, 80.0, 0.0, 0.0, 0.0, 1.7184688893709164E9, 0.0, 2024-06-15 11:28:09.370
234.0, 48430.754057258855, 68205.09650768, -5571.753450841124, -187500.02235174447, 72676.78650340873, -187500.02235174447, -187500.02235174447, -187500.02235174447, -0.222, 0.9560000000000001, 0.106, 192.0, 0.0, 0.0, 0.0, 0.0, 0.0, 0.0, 0.0, 0.0, 0.0, 1.7184688893709254E9, 0.0, 2024-06-15 11:28:09.370
235.0, 48615.871204837706, 68371.48289340531, -6520.249726802079, -187500.02235174447, 72658.03338981073, -187500.02235174447, -187500.02235174447, -187500.02235174447, -0.222, 0.9560000000000001, 0.106, 192.0, 0.0, 0.0, 0.0, 0.0, 0.0, 0.0, 0.0, 0.0, 0.0, 1.7184688893709345E9, 0.0, 2024-06-15 11:28:09.370
236.0, 48777.921352138685, 68551.66030545955, -8989.49164026876, -187500.02235174447, 72857.61211605217, -187500.02235174447, -187500.02235174447, -187500.02235174447, -0.222, 0.9560000000000001, 0.106, 192.0, 0.0, 0.0, 0.0, 0.0, 0.0, 0.0, 0.0, 0.0, 0.0, 1.7184688893709433E9, 0.0, 2024-06-15 11:28:09.370
237.0, 48518.775226923855, 68277.44910448183, -7774.182590744805, -187500.02235174447, 72877.99690699541, -187500.02235174447, -187500.02235174447, -187500.02235174447, -0.222, 0.9560000000000001, 0.106, 192.0, 0.0, 0.0, 0.0, 0.0, 0.0, 0.0, 0.0, 0.0, 0.0, 1.7184688893709524E9, 0.0, 2024-06-15 11:28:09.370
238.0, 48391.616152717615, 68171.12185610794, -5607.53859371407, -187500.02235174447, 72680.22867205486, -187500.02235174447, -187500.02235174447, -187500.02235174447, -0.222, 0.9560000000000001, 0.106, 192.0, 0.0, 0.0, 0.0, 0.0, 0.0, 0.0, 0.0, 0.0, 0.0, 1.7184688893709612E9, 0.0, 2024-06-15 11:28:09.370
239.0, 48550.7605732394, 68306.08168912909, -6056.518084587823, -187500.02235174447, 72625.86922953954, -187500.02235174447, -187500.02235174447, -187500.02235174447, -0.222, 0.9560000000000001, 0.106, 192.0, 0.0, 0.0, 0.0, 0.0, 0.0, 0.0, 0.0, 0.0, 0.0, 1.7184688893709705E9, 0.0, 2024-06-15 11:28:09.370
240.0, 48779.64243646174, 68553.89547990507, -8657.47882812963, -187500.02235174447, 72814.00386261987, -187500.02235174447, -187500.02235174447, -187500.02235174447, -0.222, 0.9560000000000001, 0.106, 192.0, 0.0, 0.0, 0.0, 0.0, 0.0, 0.0, 0.0, 0.0, 0.0, 1.7184688893709793E9, 0.0, 2024-06-15 11:28:09.370
241.0, 48589.63025684718, 68344.79491052567, -8211.24860182388, -187500.02235174447, 72922.92391335058, -187500.02235174447, -187500.02235174447, -187500.02235174447, -0.222, 0.9560000000000001, 0.106, 192.0, 0.0, 0.0, 0.0, 0.0, 0.0, 0.0, 0.0, 0.0, 0.0, 1.7184688893709881E9, 0.0, 2024-06-15 11:28:09.370
242.0, 48400.37803654409, 68179.14613236739, -5770.058127648607, -187500.02235174447, 72727.90494297803, -187500.02235174447, -187500.02235174447, -187500.02235174447, -0.222, 0.9560000000000001, 0.106, 192.0, 0.0, 0.0, 0.0, 0.0, 0.0, 0.0, 0.0, 0.0, 0.0, 1.7184688898513098E9, 0.0, 2024-06-15 11:28:09.851
243.0, 48519.22226181296, 68275.83977888105, -5724.997010826709, -187500.02235174447, 72626.22685745083, -187500.02235174447, -187500.02235174447, -187500.02235174447, -0.222, 0.9560000000000001, 0.106, 192.0, 0.0, 0.0, 0.0, 0.0, 0.0, 0.0, 0.0, 0.0, 0.0, 1.7184688898515384E9, 0.0, 2024-06-15 11:28:09.851
244.0, 48761.26930251948, 68531.52138370532, -8232.862738712161, -187500.02235174447, 72755.15171946904, -187500.02235174447, -187500.02235174447, -187500.02235174447, -0.224, 0.9560000000000001, 0.11, 192.0, 249.0, 0.0, 29.0, 224.0, 3.0, 112.0, 0.0, 0.0, 0.0, 1.718468889851562E9, 0.0, 2024-06-15 11:28:09.851
245.0, 48646.5825017193, 68405.63635893301, -8591.384719775286, -187500.02235174447, 72924.19796278453, -187500.02235174447, -187500.02235174447, -187500.02235174447, -0.224, 0.9560000000000001, 0.11, 192.0, 0.0, 0.0, 0.0, 0.0, 0.0, 0.0, 0.0, 0.0, 0.0, 1.7184688898515835E9, 0.0, 2024-06-15 11:28:09.851
246.0, 48408.49171978137, 68185.71754523725, -6009.154738087027, -187500.02235174447, 72744.04290247476, -187500.02235174447, -187500.02235174447, -187500.02235174447, -0.224, 0.9560000000000001, 0.11, 192.0, 0.0, 0.0, 0.0, 0.0, 0.0, 0.0, 0.0, 0.0, 0.0, 1.7184688898516026E9, 0.0, 2024-06-15 11:28:09.851
247.0, 48481.13488926111, 68242.1556999869, -5494.885801659322, -187500.02235174447, 72623.03055799373, -187500.02235174447, -187500.02235174447, -187500.02235174447, -0.224, 0.9560000000000001, 0.11, 192.0, 0.0, 0.0, 0.0, 0.0, 0.0, 0.0, 0.0, 0.0, 0.0, 1.718468889851622E9, 0.0, 2024-06-15 11:28:09.851
248.0, 48717.77280780945, 68488.85190354013, -7705.741549222655, -187500.02235174447, 72703.7650589663, -187500.02235174447, -187500.02235174447, -187500.02235174447, -0.224, 0.9560000000000001, 0.11, 192.0, 0.0, 0.0, 0.0, 0.0, 0.0, 0.0, 0.0, 0.0, 0.0, 1.7184688898516433E9, 0.0, 2024-06-15 11:28:09.851
249.0, 48707.938040249115, 68474.18915917745, -8844.51822573164, -187500.02235174447, 72925.42730872957, -187500.02235174447, -187500.02235174447, -187500.02235174447, -0.224, 0.9560000000000001, 0.11, 192.0, 0.0, 0.0, 0.0, 0.0, 0.0, 0.0, 0.0, 0.0, 0.0, 1.7184688898516605E9, 0.0, 2024-06-15 11:28:09.851
250.0, 48442.578130075715, 68217.32291189706, -6340.541701381409, -187500.02235174447, 72811.27694979632, -187500.02235174447, -187500.02235174447, -187500.02235174447, -0.224, 0.9560000000000001, 0.11, 192.0, 0.0, 0.0, 0.0, 0.0, 0.0, 0.0, 0.0, 0.0, 0.0, 1.718468889851677E9, 0.0, 2024-06-15 11:28:09.851
251.0, 48465.220447208936, 68233.03618824914, -5342.625718429771, -187500.02235174447, 72661.43085496794, -187500.02235174447, -187500.02235174447, -187500.02235174447, -0.224, 0.9560000000000001, 0.11, 192.0, 0.0, 0.0, 0.0, 0.0, 0.0, 0.0, 0.0, 0.0, 0.0, 1.7184688898516972E9, 0.0, 2024-06-15 11:28:09.851
252.0, 48694.236420898014, 68458.29706886972, -7193.260752351374, -187500.02235174447, 72687.18006458045, -187500.02235174447, -187500.02235174447, -187500.02235174447, -0.224, 0.9560000000000001, 0.11, 192.0, 0.0, 0.0, 0.0, 0.0, 0.0, 0.0, 0.0, 0.0, 0.0, 1.718468889851718E9, 0.0, 2024-06-15 11:28:09.851
253.0, 48756.37427048377, 68522.93831383447, -9026.841405253579, -187500.02235174447, 72931.12700356568, -187500.02235174447, -187500.02235174447, -187500.02235174447, -0.224, 0.9560000000000001, 0.11, 192.0, 0.0, 0.0, 0.0, 0.0, 0.0, 0.0, 0.0, 0.0, 0.0, 1.7184688898517375E9, 0.0, 2024-06-15 11:28:09.851
254.0, 48438.01837420683, 68205.2529698912, -6748.393982457398, -187500.02235174447, 72831.52763027283, -187500.02235174447, -187500.02235174447, -187500.02235174447, -0.226, 0.9500000000000001, 0.12, 192.0, 248.0, 240.0, 29.0, 176.0, 3.0, 192.0, 0.0, 0.0, 0.0, 1.718468889851758E9, 0.0, 2024-06-15 11:28:09.851
255.0, 48422.66272576604, 68196.26756862015, -5261.913569201657, -187500.02235174447, 72653.36187521958, -187500.02235174447, -187500.02235174447, -187500.02235174447, -0.226, 0.9500000000000001, 0.12, 192.0, 0.0, 0.0, 0.0, 0.0, 0.0, 0.0, 0.0, 0.0, 0.0, 1.7184688898517787E9, 0.0, 2024-06-15 11:28:09.851
0.0, 48643.34149877328, 68401.83656237561, -6643.139617817356, -187500.02235174447, 72661.20733752339, -187500.02235174447, -187500.02235174447, -187500.02235174447, -0.226, 0.9500000000000001, 0.12, 192.0, 0.0, 0.0, 0.0, 0.0, 0.0, 0.0, 0.0, 0.0, 0.0, 1.7184688898517995E9, 0.0, 2024-06-15 11:28:09.851
1.0, 48771.52875322447, 68543.77013966681, -8963.474209722783, -187500.02235174447, 72890.35742167919, -187500.02235174447, -187500.02235174447, -187500.02235174447, -0.226, 0.9500000000000001, 0.12, 192.0, 0.0, 0.0, 0.0, 0.0, 0.0, 0.0, 0.0, 0.0, 0.0, 1.7184688898518205E9, 0.0, 2024-06-15 11:28:09.851
2.0, 48493.13777603362, 68257.46664493879, -7204.458976323483, -187500.02235174447, 72874.06299997127, -187500.02235174447, -187500.02235174447, -187500.02235174447, -0.226, 0.9500000000000001, 0.12, 192.0, 0.0, 0.0, 0.0, 0.0, 0.0, 0.0, 0.0, 0.0, 0.0, 1.7184688898518393E9, 0.0, 2024-06-15 11:28:09.851
3.0, 48409.58695525968, 68191.596054029, -5278.051528698388, -187500.02235174447, 72675.66891618597, -187500.02235174447, -187500.02235174447, -187500.02235174447, -0.226, 0.9500000000000001, 0.12, 192.0, 0.0, 0.0, 0.0, 0.0, 0.0, 0.0, 0.0, 0.0, 0.0, 1.718468889851858E9, 0.0, 2024-06-15 11:28:09.851
4.0, 48576.95681774102, 68337.39648311096, -6137.766675682864, -187500.02235174447, 72619.1413544585, -187500.02235174447, -187500.02235174447, -187500.02235174447, -0.226, 0.9500000000000001, 0.12, 192.0, 0.0, 0.0, 0.0, 0.0, 0.0, 0.0, 0.0, 0.0, 0.0, 1.7184688898518758E9, 0.0, 2024-06-15 11:28:09.851
5.0, 48774.03214860346, 68553.1355205936, -8748.897462951834, -187500.02235174447, 72827.1913918485, -187500.02235174447, -187500.02235174447, -187500.02235174447, -0.226, 0.9500000000000001, 0.12, 192.0, 0.0, 0.0, 0.0, 0.0, 0.0, 0.0, 0.0, 0.0, 0.0, 1.7184688898518968E9, 0.0, 2024-06-15 11:28:09.851
6.0, 48536.03077364335, 68303.51123851672, -7642.08378101394, -187500.02235174447, 72896.5041514044, -187500.02235174447, -187500.02235174447, -187500.02235174447, -0.226, 0.9500000000000001, 0.12, 192.0, 0.0, 0.0, 0.0, 0.0, 0.0, 0.0, 0.0, 0.0, 0.0, 1.7184688898519187E9, 0.0, 2024-06-15 11:28:09.851
7.0, 48391.52674573979, 68179.32494632303, -5341.664593418192, -187500.02235174447, 72691.94098614944, -187500.02235174447, -187500.02235174447, -187500.02235174447, -0.226, 0.9500000000000001, 0.12, 192.0, 0.0, 0.0, 0.0, 0.0, 0.0, 0.0, 0.0, 0.0, 0.0, 1.7184688898519373E9, 0.0, 2024-06-15 11:28:09.851
8.0, 48553.08515466275, 68314.95533167783, -5726.382818982937, -187500.02235174447, 72623.67875858293, -187500.02235174447, -187500.02235174447, -187500.02235174447, -0.224, 0.9500000000000001, 0.11800000000000001, 192.0, 249.0, 0.0, 29.0, 176.0, 3.0, 176.0, 0.0, 0.0, 0.0, 1.7184688898519552E9, 0.0, 2024-06-15 11:28:09.851
9.0, 48776.49084049354, 68553.00141012686, -8403.1830314616, -187500.02235174447, 72797.01653683383, -187500.02235174447, -187500.02235174447, -187500.02235174447, -0.224, 0.9500000000000001, 0.11800000000000001, 192.0, 0.0, 0.0, 0.0, 0.0, 0.0, 0.0, 0.0, 0.0, 0.0, 1.7184688898519711E9, 0.0, 2024-06-15 11:28:09.851
10.0, 48599.2191552185, 68359.25648918825, -8082.167277594481, -187500.02235174447, 72933.49628847794, -187500.02235174447, -187500.02235174447, -187500.02235174447, -0.224, 0.9500000000000001, 0.11800000000000001, 192.0, 0.0, 0.0, 0.0, 0.0, 0.0, 0.0, 0.0, 0.0, 0.0, 1.71846888985199E9, 0.0, 2024-06-15 11:28:09.851
11.0, 48397.58406848718, 68183.63883300291, -5525.530043307548, -187500.02235174447, 72739.7737192838, -187500.02235174447, -187500.02235174447, -187500.02235174447, -0.224, 0.9500000000000001, 0.11800000000000001, 192.0, 0.0, 0.0, 0.0, 0.0, 0.0, 0.0, 0.0, 0.0, 0.0, 1.7184688898520083E9, 0.0, 2024-06-15 11:28:09.852
12.0, 48516.875328645154, 68282.25472953972, -5398.728597012591, -187500.02235174447, 72631.07718599764, -187500.02235174447, -187500.02235174447, -187500.02235174447, -0.224, 0.9500000000000001, 0.11800000000000001, 192.0, 0.0, 0.0, 0.0, 0.0, 0.0, 0.0, 0.0, 0.0, 0.0, 1.718468889852025E9, 0.0, 2024-06-15 11:28:09.852
