%OpenBCI Raw EXG Data
%Number of channels = 8
%Sample Rate = 250 Hz
%Board = OpenBCI_GUI$BoardCytonSerial
Sample Index, EXG Channel 0, EXG Channel 1, EXG Channel 2, EXG Channel 3, EXG Channel 4, EXG Channel 5, EXG Channel 6, EXG Channel 7, Accel Channel 0, Accel Channel 1, Accel Channel 2, Other, Other, Other, Other, Other, Other, Other, Analog Channel 0, Analog Channel 1, Analog Channel 2, Timestamp, Other, Timestamp (Formatted)
179.0, 49168.76395568418, 68703.18278112207, -6213.293220197346, -187500.02235174447, 72353.33440939599, -187500.02235174447, -187500.02235174447, -187500.02235174447, -0.22, 0.962, 0.078, 192.0, 249.0, 32.0, 30.0, 16.0, 2.0, 112.0, 0.0, 0.0, 0.0, 1.7184691270013804E9, 0.0, 2024-06-15 11:32:07.001
180.0, 49171.89319990793, 68697.32662407478, -5297.452842885595, -187500.02235174447, 72139.0258835585, -187500.02235174447, -187500.02235174447, -187500.02235174447, -0.22, 0.962, 0.078, 192.0, 0.0, 0.0, 0.0, 0.0, 0.0, 0.0, 0.0, 0.0, 0.0, 1.718469127001412E9, 0.0, 2024-06-15 11:32:07.001
181.0, 49317.7383324788, 68852.49243408351, -5221.74748441547, -187500.02235174447, 72047.56254524739, -187500.02235174447, -187500.02235174447, -187500.02235174447, -0.22, 0.962, 0.078, 192.0, 0.0, 0.0, 0.0, 0.0, 0.0, 0.0, 0.0, 0.0, 0.0, 1.71846912700143E9, 0.0, 2024-06-15 11:32:07.001
182.0, 49256.941587560366, 68779.46928494803, -5836.643974380967, -187500.02235174447, 72249.93523954574, -187500.02235174447, -187500.02235174447, -187500.02235174447, -0.22, 0.962, 0.078, 192.0, 0.0, 0.0, 0.0, 0.0, 0.0, 0.0, 0.0, 0.0, 0.0, 1.7184691270014465E9, 0.0, 2024-06-15 11:32:07.001
183.0, 49177.43643253284, 68715.05155742784, -6235.734371630475, -187500.02235174447, 72368.04185724758, -187500.02235174447, -187500.02235174447, -187500.02235174447, -0.22, 0.962, 0.078, 192.0, 0.0, 0.0, 0.0, 0.0, 0.0, 0.0, 0.0, 0.0, 0.0, 1.7184691270014644E9, 0.0, 2024-06-15 11:32:07.001
184.0, 49175.58123774305, 68705.73087998998, -5441.129856244309, -187500.02235174447, 72205.18704714622, -187500.02235174447, -187500.02235174447, -187500.02235174447, -0.22, 0.962, 0.078, 192.0, 0.0, 0.0, 0.0, 0.0, 0.0, 0.0, 0.0, 0.0, 0.0, 1.7184691270014813E9, 0.0, 2024-06-15 11:32:07.001
185.0, 49311.65865798696, 68850.05609393789, -5200.178051016099, -187500.02235174447, 72038.86771665428, -187500.02235174447, -187500.02235174447, -187500.02235174447, -0.22, 0.962, 0.078, 192.0, 0.0, 0.0, 0.0, 0.0, 0.0, 0.0, 0.0, 0.0, 0.0, 1.718469127001498E9, 0.0, 2024-06-15 11:32:07.001
186.0, 49280.85795412755, 68804.77145967144, -5751.886159406443, -187500.02235174447, 72230.13159395833, -187500.02235174447, -187500.02235174447, -187500.02235174447, -0.22, 0.962, 0.078, 192.0, 0.0, 0.0, 0.0, 0.0, 0.0, 0.0, 0.0, 0.0, 0.0, 1.718469127001514E9, 0.0, 2024-06-15 11:32:07.001
187.0, 49153.92239736586, 68684.34026054625, -6218.903508055629, -187500.02235174447, 72353.13324369589, -187500.02235174447, -187500.02235174447, -187500.02235174447, -0.22, 0.962, 0.078, 192.0, 0.0, 0.0, 0.0, 0.0, 0.0, 0.0, 0.0, 0.0, 0.0, 1.7184691270015314E9, 0.0, 2024-06-15 11:32:07.001
188.0, 49114.58332712452, 68636.75339660089, -5544.394915627828, -187500.02235174447, 72206.17052390224, -187500.02235174447, -187500.02235174447, -187500.02235174447, -0.22, 0.962, 0.078, 192.0, 0.0, 0.0, 0.0, 0.0, 0.0, 0.0, 0.0, 0.0, 0.0, 1.7184691270015512E9, 0.0, 2024-06-15 11:32:07.001
189.0, 49290.60331471006, 68823.9492564141, -5251.117676629744, -187500.02235174447, 72000.98150980253, -187500.02235174447, -187500.02235174447, -187500.02235174447, -0.216, 0.9520000000000001, 0.078, 192.0, 249.0, 64.0, 29.0, 192.0, 2.0, 112.0, 0.0, 0.0, 0.0, 1.7184691270015724E9, 0.0, 2024-06-15 11:32:07.001
190.0, 49285.99885535227, 68809.0853463513, -5725.868728860465, -187500.02235174447, 72196.0898871529, -187500.02235174447, -187500.02235174447, -187500.02235174447, -0.216, 0.9520000000000001, 0.078, 192.0, 0.0, 0.0, 0.0, 0.0, 0.0, 0.0, 0.0, 0.0, 0.0, 1.718469127001592E9, 0.0, 2024-06-15 11:32:07.001
191.0, 49158.54920846811, 68686.35191754722, -6178.491554080433, -187500.02235174447, 72344.1254906804, -187500.02235174447, -187500.02235174447, -187500.02235174447, -0.216, 0.9520000000000001, 0.078, 192.0, 0.0, 0.0, 0.0, 0.0, 0.0, 0.0, 0.0, 0.0, 0.0, 1.7184691270016096E9, 0.0, 2024-06-15 11:32:07.001
192.0, 49135.57161516805, 68661.02739107936, -5719.721999135256, -187500.02235174447, 72273.89630960183, -187500.02235174447, -187500.02235174447, -187500.02235174447, -0.216, 0.9520000000000001, 0.078, 192.0, 0.0, 0.0, 0.0, 0.0, 0.0, 0.0, 0.0, 0.0, 0.0, 1.7184691270016208E9, 0.0, 2024-06-15 11:32:07.001
193.0, 49280.45562272735, 68813.51099175346, -5274.005862951978, -187500.02235174447, 72023.37795774675, -187500.02235174447, -187500.02235174447, -187500.02235174447, -0.216, 0.9520000000000001, 0.078, 192.0, 0.0, 0.0, 0.0, 0.0, 0.0, 0.0, 0.0, 0.0, 0.0, 1.718469127001632E9, 0.0, 2024-06-15 11:32:07.001
194.0, 49321.873405203034, 68852.89476548371, -5665.876646742421, -187500.02235174447, 72170.20656707366, -187500.02235174447, -187500.02235174447, -187500.02235174447, -0.216, 0.9520000000000001, 0.078, 192.0, 0.0, 0.0, 0.0, 0.0, 0.0, 0.0, 0.0, 0.0, 0.0, 1.7184691270016427E9, 0.0, 2024-06-15 11:32:07.001
195.0, 49180.72213896777, 68712.90578996013, -6112.911535848562, -187500.02235174447, 72331.11677540741, -187500.02235174447, -187500.02235174447, -187500.02235174447, -0.216, 0.9520000000000001, 0.078, 192.0, 0.0, 0.0, 0.0, 0.0, 0.0, 0.0, 0.0, 0.0, 0.0, 1.7184691270016527E9, 0.0, 2024-06-15 11:32:07.001
196.0, 49112.437559656806, 68647.03519905034, -5772.42741256087, -187500.02235174447, 72308.83208618547, -187500.02235174447, -187500.02235174447, -187500.02235174447, -0.216, 0.9520000000000001, 0.078, 192.0, 0.0, 0.0, 0.0, 0.0, 0.0, 0.0, 0.0, 0.0, 0.0, 1.7184691270016637E9, 0.0, 2024-06-15 11:32:07.001
197.0, 49221.6705348099, 68759.0844940048, -5175.591132115261, -187500.02235174447, 72009.58693141781, -187500.02235174447, -187500.02235174447, -187500.02235174447, -0.216, 0.9520000000000001, 0.078, 192.0, 0.0, 0.0, 0.0, 0.0, 0.0, 0.0, 0.0, 0.0, 0.0, 1.7184691270016744E9, 0.0, 2024-06-15 11:32:07.001
198.0, 49325.181463382425, 68864.96470748958, -5565.562017627003, -187500.02235174447, 72109.3651186663, -187500.02235174447, -187500.02235174447, -187500.02235174447, -0.216, 0.9520000000000001, 0.078, 192.0, 0.0, 0.0, 0.0, 0.0, 0.0, 0.0, 0.0, 0.0, 0.0, 1.7184691270016854E9, 0.0, 2024-06-15 11:32:07.001
199.0, 49186.08655763705, 68717.1749731511, -5982.399699974025, -187500.02235174447, 72309.63674898587, -187500.02235174447, -187500.02235174447, -187500.02235174447, -0.22, 0.9540000000000001, 0.084, 192.0, 249.0, 32.0, 29.0, 208.0, 2.0, 160.0, 0.0, 0.0, 0.0, 1.718469127001696E9, 0.0, 2024-06-15 11:32:07.001
200.0, 49112.48226314572, 68649.87387059616, -5844.5341401736905, -187500.02235174447, 72333.1731358973, -187500.02235174447, -187500.02235174447, -187500.02235174447, -0.22, 0.9540000000000001, 0.084, 192.0, 0.0, 0.0, 0.0, 0.0, 0.0, 0.0, 0.0, 0.0, 0.0, 1.7184691270017068E9, 0.0, 2024-06-15 11:32:07.001
201.0, 49206.51605206919, 68737.85033677224, -5190.253876477942, -187500.02235174447, 72068.03674316844, -187500.02235174447, -187500.02235174447, -187500.02235174447, -0.22, 0.9540000000000001, 0.084, 192.0, 0.0, 0.0, 0.0, 0.0, 0.0, 0.0, 0.0, 0.0, 0.0, 1.7184691270017276E9, 0.0, 2024-06-15 11:32:07.001
202.0, 49329.33888785111, 68865.97053599007, -5454.496199428582, -187500.02235174447, 72074.13876940474, -187500.02235174447, -187500.02235174447, -187500.02235174447, -0.22, 0.9540000000000001, 0.084, 192.0, 0.0, 0.0, 0.0, 0.0, 0.0, 0.0, 0.0, 0.0, 0.0, 1.7184691270017397E9, 0.0, 2024-06-15 11:32:07.001
203.0, 49225.827959278584, 68751.70841833454, -5912.684609017922, -187500.02235174447, 72297.27623430207, -187500.02235174447, -187500.02235174447, -187500.02235174447, -0.22, 0.9540000000000001, 0.084, 192.0, 0.0, 0.0, 0.0, 0.0, 0.0, 0.0, 0.0, 0.0, 0.0, 1.7184691270017562E9, 0.0, 2024-06-15 11:32:07.001
204.0, 49127.97202205325, 68667.53174871585, -5992.368578001092, -187500.02235174447, 72363.6832670788, -187500.02235174447, -187500.02235174447, -187500.02235174447, -0.22, 0.9540000000000001, 0.084, 192.0, 0.0, 0.0, 0.0, 0.0, 0.0, 0.0, 0.0, 0.0, 0.0, 1.718469127001768E9, 0.0, 2024-06-15 11:32:07.001
205.0, 49145.0487548171, 68681.05455411131, -5111.978067395457, -187500.02235174447, 72132.47682243309, -187500.02235174447, -187500.02235174447, -187500.02235174447, -0.22, 0.9540000000000001, 0.084, 192.0, 0.0, 0.0, 0.0, 0.0, 0.0, 0.0, 0.0, 0.0, 0.0, 1.71846912700178E9, 0.0, 2024-06-15 11:32:07.001
206.0, 49306.5401085067, 68852.96182071709, -5078.919837346058, -187500.02235174447, 72030.77638516144, -187500.02235174447, -187500.02235174447, -187500.02235174447, -0.22, 0.9540000000000001, 0.084, 192.0, 0.0, 0.0, 0.0, 0.0, 0.0, 0.0, 0.0, 0.0, 0.0, 1.7184691270017917E9, 0.0, 2024-06-15 11:32:07.001
207.0, 49265.23408475329, 68797.84241889029, -5719.453778201792, -187500.02235174447, 72234.87016378286, -187500.02235174447, -187500.02235174447, -187500.02235174447, -0.22, 0.9540000000000001, 0.084, 192.0, 0.0, 0.0, 0.0, 0.0, 0.0, 0.0, 0.0, 0.0, 0.0, 1.7184691270018024E9, 0.0, 2024-06-15 11:32:07.001
208.0, 49197.44124382034, 68739.50436586194, -6275.833401183296, -187500.02235174447, 72384.1798167443, -187500.02235174447, -187500.02235174447, -187500.02235174447, -0.22, 0.9540000000000001, 0.084, 192.0, 0.0, 0.0, 0.0, 0.0, 0.0, 0.0, 0.0, 0.0, 0.0, 1.7184691270018144E9, 0.0, 2024-06-15 11:32:07.001
209.0, 49138.63380415843, 68670.83980689524, -5398.281562123485, -187500.02235174447, 72242.24623945312, -187500.02235174447, -187500.02235174447, -187500.02235174447, -0.22, 0.9540000000000001, 0.084, 192.0, 0.0, 0.0, 0.0, 0.0, 0.0, 0.0, 0.0, 0.0, 0.0, 1.7184691270018263E9, 0.0, 2024-06-15 11:32:07.001
210.0, 49262.30600622964, 68805.30790153837, -4861.437363795921, -187500.02235174447, 72036.9007631422, -187500.02235174447, -187500.02235174447, -187500.02235174447, -0.218, 0.962, 0.08, 192.0, 249.0, 48.0, 30.0, 16.0, 2.0, 128.0, 0.0, 0.0, 0.0, 1.7184691270018387E9, 0.0, 2024-06-15 11:32:07.001
211.0, 49273.571285435115, 68805.66552944964, -5438.469998654127, -187500.02235174447, 72189.9431574277, -187500.02235174447, -187500.02235174447, -187500.02235174447, -0.218, 0.962, 0.08, 192.0, 0.0, 0.0, 0.0, 0.0, 0.0, 0.0, 0.0, 0.0, 0.0, 1.7184691270018508E9, 0.0, 2024-06-15 11:32:07.001
212.0, 49188.16526987139, 68726.80857501132, -6190.472089108478, -187500.02235174447, 72334.96127545372, -187500.02235174447, -187500.02235174447, -187500.02235174447, -0.218, 0.962, 0.08, 192.0, 0.0, 0.0, 0.0, 0.0, 0.0, 0.0, 0.0, 0.0, 0.0, 1.7184691270018637E9, 0.0, 2024-06-15 11:32:07.001
213.0, 49109.17420496634, 68640.3520274582, -5538.136427180341, -187500.02235174447, 72248.01298952258, -187500.02235174447, -187500.02235174447, -187500.02235174447, -0.218, 0.962, 0.08, 192.0, 0.0, 0.0, 0.0, 0.0, 0.0, 0.0, 0.0, 0.0, 0.0, 1.7184691270018806E9, 0.0, 2024-06-15 11:32:07.001
214.0, 49240.40129666344, 68784.4313722171, -4978.001711130347, -187500.02235174447, 71985.78232357292, -187500.02235174447, -187500.02235174447, -187500.02235174447, -0.218, 0.962, 0.08, 192.0, 0.0, 0.0, 0.0, 0.0, 0.0, 0.0, 0.0, 0.0, 0.0, 1.7184691270018928E9, 0.0, 2024-06-15 11:32:07.001
215.0, 49271.91725634543, 68809.0406428624, -5494.885801659322, -187500.02235174447, 72135.31549397892, -187500.02235174447, -187500.02235174447, -187500.02235174447, -0.218, 0.962, 0.08, 192.0, 0.0, 0.0, 0.0, 0.0, 0.0, 0.0, 0.0, 0.0, 0.0, 1.7184691270019052E9, 0.0, 2024-06-15 11:32:07.001
216.0, 49158.16922881237, 68695.60553975172, -5991.809784389709, -187500.02235174447, 72315.76112696661, -187500.02235174447, -187500.02235174447, -187500.02235174447, -0.218, 0.962, 0.08, 192.0, 0.0, 0.0, 0.0, 0.0, 0.0, 0.0, 0.0, 0.0, 0.0, 1.718469127001916E9, 0.0, 2024-06-15 11:32:07.001
217.0, 49118.20430972628, 68650.56677467427, -5517.438711814727, -187500.02235174447, 72285.5639202075, -187500.02235174447, -187500.02235174447, -187500.02235174447, -0.218, 0.962, 0.08, 192.0, 0.0, 0.0, 0.0, 0.0, 0.0, 0.0, 0.0, 0.0, 0.0, 1.7184691270019271E9, 0.0, 2024-06-15 11:32:07.001
218.0, 49240.17777921889, 68778.23993900299, -4964.925940623992, -187500.02235174447, 72011.48682969651, -187500.02235174447, -187500.02235174447, -187500.02235174447, -0.218, 0.962, 0.08, 192.0, 0.0, 0.0, 0.0, 0.0, 0.0, 0.0, 0.0, 0.0, 0.0, 1.7184691270019393E9, 0.0, 2024-06-15 11:32:07.001
219.0, 49323.57213778164, 68860.31554464287, -5446.762495847046, -187500.02235174447, 72142.69156964918, -187500.02235174447, -187500.02235174447, -187500.02235174447, -0.218, 0.962, 0.08, 192.0, 0.0, 0.0, 0.0, 0.0, 0.0, 0.0, 0.0, 0.0, 0.0, 1.7184691270019512E9, 0.0, 2024-06-15 11:32:07.001
220.0, 49205.44316833534, 68738.29737166135, -6062.5977590796665, -187500.02235174447, 72332.41317658582, -187500.02235174447, -187500.02235174447, -187500.02235174447, -0.22, 0.966, 0.084, 192.0, 249.0, 32.0, 30.0, 48.0, 2.0, 160.0, 0.0, 0.0, 0.0, 1.7184691270019646E9, 0.0, 2024-06-15 11:32:07.001
221.0, 49119.72422834924, 68656.62409742166, -5861.230893281805, -187500.02235174447, 72337.12939466588, -187500.02235174447, -187500.02235174447, -187500.02235174447, -0.22, 0.966, 0.084, 192.0, 0.0, 0.0, 0.0, 0.0, 0.0, 0.0, 0.0, 0.0, 0.0, 1.718469127001978E9, 0.0, 2024-06-15 11:32:07.001
222.0, 49173.54722899762, 68710.89413295915, -4842.5501397311855, -187500.02235174447, 72074.5634525494, -187500.02235174447, -187500.02235174447, -187500.02235174447, -0.22, 0.966, 0.084, 192.0, 0.0, 0.0, 0.0, 0.0, 0.0, 0.0, 0.0, 0.0, 0.0, 1.718469127001992E9, 0.0, 2024-06-15 11:32:07.001
223.0, 49325.740256993806, 68869.23389068054, -5162.314195908809, -187500.02235174447, 72076.8656822283, -187500.02235174447, -187500.02235174447, -187500.02235174447, -0.22, 0.966, 0.084, 192.0, 0.0, 0.0, 0.0, 0.0, 0.0, 0.0, 0.0, 0.0, 0.0, 1.7184691270020034E9, 0.0, 2024-06-15 11:32:07.002
224.0, 49253.90175031445, 68789.72873565301, -6057.188636921482, -187500.02235174447, 72271.10234154492, -187500.02235174447, -187500.02235174447, -187500.02235174447, -0.22, 0.966, 0.084, 192.0, 0.0, 0.0, 0.0, 0.0, 0.0, 0.0, 0.0, 0.0, 0.0, 1.718469127002015E9, 0.0, 2024-06-15 11:32:07.002
225.0, 49174.508354009195, 68715.81151673931, -6371.342405240823, -187500.02235174447, 72363.86208103444, -187500.02235174447, -187500.02235174447, -187500.02235174447, -0.22, 0.966, 0.084, 192.0, 0.0, 0.0, 0.0, 0.0, 0.0, 0.0, 0.0, 0.0, 0.0, 1.7184691270020268E9, 0.0, 2024-06-15 11:32:07.002
226.0, 49111.7893590676, 68644.46474843798, -5042.866473539648, -187500.02235174447, 72154.1803662992, -187500.02235174447, -187500.02235174447, -187500.02235174447, -0.22, 0.966, 0.084, 192.0, 0.0, 0.0, 0.0, 0.0, 0.0, 0.0, 0.0, 0.0, 0.0, 1.7184691270020385E9, 0.0, 2024-06-15 11:32:07.002
227.0, 49226.29734591214, 68770.2827179769, -4658.103544485992, -187500.02235174447, 72028.60826594928, -187500.02235174447, -187500.02235174447, -187500.02235174447, -0.22, 0.966, 0.084, 192.0, 0.0, 0.0, 0.0, 0.0, 0.0, 0.0, 0.0, 0.0, 0.0, 1.7184691270020545E9, 0.0, 2024-06-15 11:32:07.002
228.0, 49220.17296793139, 68755.44115965857, -5534.515444578582, -187500.02235174447, 72178.7896369445, -187500.02235174447, -187500.02235174447, -187500.02235174447, -0.22, 0.966, 0.084, 192.0, 0.0, 0.0, 0.0, 0.0, 0.0, 0.0, 0.0, 0.0, 0.0, 1.7184691270020711E9, 0.0, 2024-06-15 11:32:07.002
229.0, 49219.45771210882, 68767.06406677533, -6467.6784238431965, -187500.02235174447, 72339.00694120013, -187500.02235174447, -187500.02235174447, -187500.02235174447, -0.22, 0.966, 0.084, 192.0, 0.0, 0.0, 0.0, 0.0, 0.0, 0.0, 0.0, 0.0, 0.0, 1.7184691270020876E9, 0.0, 2024-06-15 11:32:07.002
230.0, 49128.01672554216, 68670.68334468405, -5390.279637608485, -187500.02235174447, 72249.3540941899, -187500.02235174447, -187500.02235174447, -187500.02235174447, -0.218, 0.96, 0.082, 192.0, 249.0, 48.0, 30.0, 0.0, 2.0, 144.0, 0.0, 0.0, 0.0, 1.7184691270021048E9, 0.0, 2024-06-15 11:32:07.002
231.0, 49248.11264850052, 68805.73258468302, -4799.5230316547195, -187500.02235174447, 72045.21561207958, -187500.02235174447, -187500.02235174447, -187500.02235174447, -0.218, 0.96, 0.082, 192.0, 0.0, 0.0, 0.0, 0.0, 0.0, 0.0, 0.0, 0.0, 0.0, 1.7184691270021198E9, 0.0, 2024-06-15 11:32:07.002
232.0, 49273.70539590185, 68816.75199469949, -5616.903974640843, -187500.02235174447, 72197.60980577586, -187500.02235174447, -187500.02235174447, -187500.02235174447, -0.218, 0.96, 0.082, 192.0, 0.0, 0.0, 0.0, 0.0, 0.0, 0.0, 0.0, 0.0, 0.0, 1.7184691270021348E9, 0.0, 2024-06-15 11:32:07.002
233.0, 49227.280822668174, 68779.15636052565, -6728.0091915141575, -187500.02235174447, 72324.63476951537, -187500.02235174447, -187500.02235174447, -187500.02235174447, -0.218, 0.96, 0.082, 192.0, 0.0, 0.0, 0.0, 0.0, 0.0, 0.0, 0.0, 0.0, 0.0, 1.7184691270021508E9, 0.0, 2024-06-15 11:32:07.002
234.0, 49095.20436468177, 68635.0993675112, -5850.010317565241, -187500.02235174447, 72260.84289083992, -187500.02235174447, -187500.02235174447, -187500.02235174447, -0.218, 0.96, 0.082, 192.0, 0.0, 0.0, 0.0, 0.0, 0.0, 0.0, 0.0, 0.0, 0.0, 1.718469127002186E9, 0.0, 2024-06-15 11:32:07.002
235.0, 49208.99709570374, 68757.05048525936, -4950.486713705864, -187500.02235174447, 72009.58693141781, -187500.02235174447, -187500.02235174447, -187500.02235174447, -0.218, 0.96, 0.082, 192.0, 0.0, 0.0, 0.0, 0.0, 0.0, 0.0, 0.0, 0.0, 0.0, 1.7184691270022008E9, 0.0, 2024-06-15 11:32:07.002
236.0, 49258.99794805026, 68797.08245957881, -5551.793343042534, -187500.02235174447, 72145.26202026154, -187500.02235174447, -187500.02235174447, -187500.02235174447, -0.218, 0.96, 0.082, 192.0, 0.0, 0.0, 0.0, 0.0, 0.0, 0.0, 0.0, 0.0, 0.0, 1.718469127002216E9, 0.0, 2024-06-15 11:32:07.002
237.0, 49233.82988379358, 68781.6374041602, -6700.0695109450235, -187500.02235174447, 72275.97502183617, -187500.02235174447, -187500.02235174447, -187500.02235174447, -0.218, 0.96, 0.082, 192.0, 0.0, 0.0, 0.0, 0.0, 0.0, 0.0, 0.0, 0.0, 0.0, 1.7184691270022316E9, 0.0, 2024-06-15 11:32:07.002
238.0, 49135.81748435706, 68679.40052502161, -6247.670203169609, -187500.02235174447, 72321.14789738035, -187500.02235174447, -187500.02235174447, -187500.02235174447, -0.218, 0.96, 0.082, 192.0, 0.0, 0.0, 0.0, 0.0, 0.0, 0.0, 0.0, 0.0, 0.0, 1.7184691270022488E9, 0.0, 2024-06-15 11:32:07.002
239.0, 49143.1488565384, 68694.04091763985, -4824.109950555558, -187500.02235174447, 72051.04941738241, -187500.02235174447, -187500.02235174447, -187500.02235174447, -0.218, 0.96, 0.082, 192.0, 0.0, 0.0, 0.0, 0.0, 0.0, 0.0, 0.0, 0.0, 0.0, 1.7184691270022855E9, 0.0, 2024-06-15 11:32:07.002
240.0, 49247.6209101225, 68793.48382872151, -5137.481407818962, -187500.02235174447, 72103.73247906358, -187500.02235174447, -187500.02235174447, -187500.02235174447, -0.216, 0.96, 0.082, 192.0, 249.0, 64.0, 30.0, 0.0, 2.0, 144.0, 0.0, 0.0, 0.0, 1.7184691270023003E9, 0.0, 2024-06-15 11:32:07.002
241.0, 49228.554872102126, 68775.20010175707, -6339.625279858742, -187500.02235174447, 72244.92844878774, -187500.02235174447, -187500.02235174447, -187500.02235174447, -0.216, 0.96, 0.082, 192.0, 0.0, 0.0, 0.0, 0.0, 0.0, 0.0, 0.0, 0.0, 0.0, 1.7184691270023117E9, 0.0, 2024-06-15 11:32:07.002
242.0, 49172.31788305258, 68717.8678772292, -6379.344329755822, -187500.02235174447, 72343.79021451357, -187500.02235174447, -187500.02235174447, -187500.02235174447, -0.216, 0.96, 0.082, 192.0, 0.0, 0.0, 0.0, 0.0, 0.0, 0.0, 0.0, 0.0, 0.0, 1.7184691270023215E9, 0.0, 2024-06-15 11:32:07.002
243.0, 49153.49771422121, 68699.60650200922, -4913.852204543616, -187500.02235174447, 72118.59638912635, -187500.02235174447, -187500.02235174447, -187500.02235174447, -0.216, 0.96, 0.082, 192.0, 0.0, 0.0, 0.0, 0.0, 0.0, 0.0, 0.0, 0.0, 0.0, 1.7184691270023344E9, 0.0, 2024-06-15 11:32:07.002
244.0, 49254.05821252563, 68802.26806429244, -4954.733545152372, -187500.02235174447, 72094.74707779253, -187500.02235174447, -187500.02235174447, -187500.02235174447, -0.216, 0.96, 0.082, 192.0, 0.0, 0.0, 0.0, 0.0, 0.0, 0.0, 0.0, 0.0, 0.0, 1.7184691270023448E9, 0.0, 2024-06-15 11:32:07.002
245.0, 49251.376003191, 68800.74814566948, -6109.8493468581855, -187500.02235174447, 72238.53584987353, -187500.02235174447, -187500.02235174447, -187500.02235174447, -0.216, 0.96, 0.082, 192.0, 0.0, 0.0, 0.0, 0.0, 0.0, 0.0, 0.0, 0.0, 0.0, 1.7184691270023549E9, 0.0, 2024-06-15 11:32:07.002
246.0, 49201.17398514438, 68756.62580211471, -6597.8102800619945, -187500.02235174447, 72361.35868565545, -187500.02235174447, -187500.02235174447, -187500.02235174447, -0.216, 0.96, 0.082, 192.0, 0.0, 0.0, 0.0, 0.0, 0.0, 0.0, 0.0, 0.0, 0.0, 1.718469127002381E9, 0.0, 2024-06-15 11:32:07.002
247.0, 49111.96817302325, 68660.31213525678, -5039.290194426799, -187500.02235174447, 72171.27945080752, -187500.02235174447, -187500.02235174447, -187500.02235174447, -0.216, 0.96, 0.082, 192.0, 0.0, 0.0, 0.0, 0.0, 0.0, 0.0, 0.0, 0.0, 0.0, 1.7184691270024154E9, 0.0, 2024-06-15 11:32:07.002
248.0, 49211.74636027174, 68764.65007837416, -4587.606142473954, -187500.02235174447, 72064.90749894471, -187500.02235174447, -187500.02235174447, -187500.02235174447, -0.216, 0.96, 0.082, 192.0, 0.0, 0.0, 0.0, 0.0, 0.0, 0.0, 0.0, 0.0, 0.0, 1.7184691270024374E9, 0.0, 2024-06-15 11:32:07.002
249.0, 49219.72593304228, 68765.29827896337, -5608.343256514461, -187500.02235174447, 72168.41842751723, -187500.02235174447, -187500.02235174447, -187500.02235174447, -0.216, 0.96, 0.082, 192.0, 0.0, 0.0, 0.0, 0.0, 0.0, 0.0, 0.0, 0.0, 0.0, 1.7184691270024652E9, 0.0, 2024-06-15 11:32:07.002
250.0, 49234.58984310506, 68790.37693624222, -6618.485643683153, -187500.02235174447, 72318.97977816818, -187500.02235174447, -187500.02235174447, -187500.02235174447, -0.216, 0.96, 0.082, 192.0, 0.0, 0.0, 0.0, 0.0, 0.0, 0.0, 0.0, 0.0, 0.0, 1.7184691270024753E9, 0.0, 2024-06-15 11:32:07.002
251.0, 49122.89817606189, 68666.74943765992, -5269.244941382997, -187500.02235174447, 72231.20447769218, -187500.02235174447, -187500.02235174447, -187500.02235174447, -0.216, 0.96, 0.084, 192.0, 249.0, 64.0, 30.0, 0.0, 2.0, 160.0, 0.0, 0.0, 0.0, 1.7184691270024848E9, 0.0, 2024-06-15 11:32:07.002
252.0, 49187.382958815455, 68740.4207873846, -4326.716581191609, -187500.02235174447, 72061.55473727641, -187500.02235174447, -187500.02235174447, -187500.02235174447, -0.216, 0.96, 0.084, 192.0, 0.0, 0.0, 0.0, 0.0, 0.0, 0.0, 0.0, 0.0, 0.0, 1.7184691270024948E9, 0.0, 2024-06-15 11:32:07.002
253.0, 49224.30804065562, 68764.94065105208, -5157.508570850918, -187500.02235174447, 72139.29410449197, -187500.02235174447, -187500.02235174447, -187500.02235174447, -0.216, 0.96, 0.084, 192.0, 0.0, 0.0, 0.0, 0.0, 0.0, 0.0, 0.0, 0.0, 0.0, 1.7184691270025048E9, 0.0, 2024-06-15 11:32:07.002
254.0, 49268.25157025475, 68822.38463430222, -6579.012462975081, -187500.02235174447, 72284.7145539182, -187500.02235174447, -187500.02235174447, -187500.02235174447, -0.216, 0.96, 0.084, 192.0, 0.0, 0.0, 0.0, 0.0, 0.0, 0.0, 0.0, 0.0, 0.0, 1.7184691270025148E9, 0.0, 2024-06-15 11:32:07.002
255.0, 49143.21591177177, 68687.15658034761, -5611.58425946048, -187500.02235174447, 72288.89433013134, -187500.02235174447, -187500.02235174447, -187500.02235174447, -0.216, 0.96, 0.084, 192.0, 0.0, 0.0, 0.0, 0.0, 0.0, 0.0, 0.0, 0.0, 0.0, 1.7184691270025246E9, 0.0, 2024-06-15 11:32:07.002
0.0, 49155.55407471109, 68712.07877541528, -4268.222065952071, -187500.02235174447, 72073.84819672683, -187500.02235174447, -187500.02235174447, -187500.02235174447, -0.216, 0.96, 0.084, 192.0, 0.0, 0.0, 0.0, 0.0, 0.0, 0.0, 0.0, 0.0, 0.0, 1.7184691270025344E9, 0.0, 2024-06-15 11:32:07.002
1.0, 49209.80175850412, 68758.30218294886, -4803.367531701032, -187500.02235174447, 72112.36025242333, -187500.02235174447, -187500.02235174447, -187500.02235174447, -0.216, 0.96, 0.084, 192.0, 0.0, 0.0, 0.0, 0.0, 0.0, 0.0, 0.0, 0.0, 0.0, 1.7184691270025444E9, 0.0, 2024-06-15 11:32:07.002
2.0, 49269.19034352188, 68830.4983175395, -6395.437585763644, -187500.02235174447, 72244.05673075399, -187500.02235174447, -187500.02235174447, -187500.02235174447, -0.216, 0.96, 0.084, 192.0, 0.0, 0.0, 0.0, 0.0, 0.0, 0.0, 0.0, 0.0, 0.0, 1.718469127002554E9, 0.0, 2024-06-15 11:32:07.002
3.0, 49165.366490526976, 68717.19732489555, -5910.672952016945, -187500.02235174447, 72312.49777227614, -187500.02235174447, -187500.02235174447, -187500.02235174447, -0.216, 0.96, 0.084, 192.0, 0.0, 0.0, 0.0, 0.0, 0.0, 0.0, 0.0, 0.0, 0.0, 1.7184691270025845E9, 0.0, 2024-06-15 11:32:07.002
4.0, 49136.063353546066, 68694.53265601787, -4320.547499721944, -187500.02235174447, 72086.67809804417, -187500.02235174447, -187500.02235174447, -187500.02235174447, -0.216, 0.96, 0.084, 192.0, 0.0, 0.0, 0.0, 0.0, 0.0, 0.0, 0.0, 0.0, 0.0, 1.7184691270025947E9, 0.0, 2024-06-15 11:32:07.002
5.0, 49216.17200567389, 68763.15251149566, -4531.905595291329, -187500.02235174447, 72102.70429881863, -187500.02235174447, -187500.02235174447, -187500.02235174447, -0.218, 0.962, 0.08600000000000001, 192.0, 249.0, 48.0, 30.0, 16.0, 2.0, 176.0, 0.0, 0.0, 0.0, 1.718469127002614E9, 0.0, 2024-06-15 11:32:07.002
6.0, 49280.41091923844, 68831.66060825117, -6141.991155384917, -187500.02235174447, 72214.30655888398, -187500.02235174447, -187500.02235174447, -187500.02235174447, -0.218, 0.962, 0.08600000000000001, 192.0, 0.0, 0.0, 0.0, 0.0, 0.0, 0.0, 0.0, 0.0, 0.0, 1.7184691270026455E9, 0.0, 2024-06-15 11:32:07.002
7.0, 49213.62390680599, 68760.5820608833, -6268.904360402151, -187500.02235174447, 72334.38013009788, -187500.02235174447, -187500.02235174447, -187500.02235174447, -0.218, 0.962, 0.08600000000000001, 192.0, 0.0, 0.0, 0.0, 0.0, 0.0, 0.0, 0.0, 0.0, 0.0, 1.7184691270026808E9, 0.0, 2024-06-15 11:32:07.002
8.0, 49127.50263541969, 68677.54533023183, -4515.834691027962, -187500.02235174447, 72137.17068876872, -187500.02235174447, -187500.02235174447, -187500.02235174447, -0.218, 0.962, 0.08600000000000001, 192.0, 0.0, 0.0, 0.0, 0.0, 0.0, 0.0, 0.0, 0.0, 0.0, 1.7184691270026944E9, 0.0, 2024-06-15 11:32:07.002
9.0, 49192.81443271809, 68739.88434551768, -4308.723426905087, -187500.02235174447, 72091.99781322453, -187500.02235174447, -187500.02235174447, -187500.02235174447, -0.218, 0.962, 0.08600000000000001, 192.0, 0.0, 0.0, 0.0, 0.0, 0.0, 0.0, 0.0, 0.0, 0.0, 1.718469127002723E9, 0.0, 2024-06-15 11:32:07.002
10.0, 49290.983294365804, 68842.45650082309, -5861.722631659822, -187500.02235174447, 72198.57093078743, -187500.02235174447, -187500.02235174447, -187500.02235174447, -0.218, 0.962, 0.08600000000000001, 192.0, 0.0, 0.0, 0.0, 0.0, 0.0, 0.0, 0.0, 0.0, 0.0, 1.7184691270027332E9, 0.0, 2024-06-15 11:32:07.002
11.0, 49264.80940160864, 68819.65772147867, -6613.12122501388, -187500.02235174447, 72355.18960418578, -187500.02235174447, -187500.02235174447, -187500.02235174447, -0.218, 0.962, 0.08600000000000001, 192.0, 0.0, 0.0, 0.0, 0.0, 0.0, 0.0, 0.0, 0.0, 0.0, 1.7184691270027432E9, 0.0, 2024-06-15 11:32:07.002
12.0, 49128.21789124225, 68680.04872561082, -4842.080753097624, -187500.02235174447, 72209.791506504, -187500.02235174447, -187500.02235174447, -187500.02235174447, -0.218, 0.962, 0.08600000000000001, 192.0, 0.0, 0.0, 0.0, 0.0, 0.0, 0.0, 0.0, 0.0, 0.0, 1.7184691270027533E9, 0.0, 2024-06-15 11:32:07.002
13.0, 49173.52487725316, 68728.46260410102, -4149.0202127719185, -187500.02235174447, 72100.267958673, -187500.02235174447, -187500.02235174447, -187500.02235174447, -0.218, 0.962, 0.08600000000000001, 192.0, 0.0, 0.0, 0.0, 0.0, 0.0, 0.0, 0.0, 0.0, 0.0, 1.7184691270027633E9, 0.0, 2024-06-15 11:32:07.002
14.0, 49244.26814845421, 68795.60724444476, -5427.808216548946, -187500.02235174447, 72152.0793023204, -187500.02235174447, -187500.02235174447, -187500.02235174447, -0.218, 0.962, 0.08600000000000001, 192.0, 0.0, 0.0, 0.0, 0.0, 0.0, 0.0, 0.0, 0.0, 0.0, 1.7184691270027735E9, 0.0, 2024-06-15 11:32:07.002
15.0, 49278.84629712657, 68838.61200077677, -6726.109293235457, -187500.02235174447, 72300.53958899256, -187500.02235174447, -187500.02235174447, -187500.02235174447, -0.22, 0.9580000000000001, 0.082, 192.0, 249.0, 32.0, 29.0, 240.0, 2.0, 144.0, 0.0, 0.0, 0.0, 1.7184691270027838E9, 0.0, 2024-06-15 11:32:07.002
16.0, 49124.306335962574, 68675.60072846421, -5204.961324329534, -187500.02235174447, 72243.18501272023, -187500.02235174447, -187500.02235174447, -187500.02235174447, -0.22, 0.9580000000000001, 0.082, 192.0, 0.0, 0.0, 0.0, 0.0, 0.0, 0.0, 0.0, 0.0, 0.0, 1.7184691270027945E9, 0.0, 2024-06-15 11:32:07.002
17.0, 49144.95934783928, 68702.89220844414, -4084.2448573404386, -187500.02235174447, 72086.07460094387, -187500.02235174447, -187500.02235174447, -187500.02235174447, -0.22, 0.9580000000000001, 0.082, 192.0, 0.0, 0.0, 0.0, 0.0, 0.0, 0.0, 0.0, 0.0, 0.0, 1.7184691270028048E9, 0.0, 2024-06-15 11:32:07.002
18.0, 49219.86004350901, 68767.42169468662, -5075.120040788655, -187500.02235174447, 72136.47778469059, -187500.02235174447, -187500.02235174447, -187500.02235174447, -0.22, 0.9580000000000001, 0.082, 192.0, 0.0, 0.0, 0.0, 0.0, 0.0, 0.0, 0.0, 0.0, 0.0, 1.7184691270028145E9, 0.0, 2024-06-15 11:32:07.002
19.0, 49288.815175153635, 68847.08331192534, -6629.907385099815, -187500.02235174447, 72287.75439116411, -187500.02235174447, -187500.02235174447, -187500.02235174447, -0.22, 0.9580000000000001, 0.082, 192.0, 0.0, 0.0, 0.0, 0.0, 0.0, 0.0, 0.0, 0.0, 0.0, 1.7184691270028243E9, 0.0, 2024-06-15 11:32:07.002
20.0, 49135.32574597904, 68683.28972855685, -5464.532132689015, -187500.02235174447, 72271.95170783422, -187500.02235174447, -187500.02235174447, -187500.02235174447, -0.22, 0.9580000000000001, 0.082, 192.0, 0.0, 0.0, 0.0, 0.0, 0.0, 0.0, 0.0, 0.0, 0.0, 1.7184691270028348E9, 0.0, 2024-06-15 11:32:07.002
21.0, 49165.411194015884, 68723.14288892066, -4174.612960173245, -187500.02235174447, 72089.85204575682, -187500.02235174447, -187500.02235174447, -187500.02235174447, -0.22, 0.9580000000000001, 0.082, 192.0, 0.0, 0.0, 0.0, 0.0, 0.0, 0.0, 0.0, 0.0, 0.0, 1.718469127002845E9, 0.0, 2024-06-15 11:32:07.002
22.0, 49226.543215101156, 68773.4343139451, -4876.837715725626, -187500.02235174447, 72129.48168867608, -187500.02235174447, -187500.02235174447, -187500.02235174447, -0.22, 0.9580000000000001, 0.082, 192.0, 0.0, 0.0, 0.0, 0.0, 0.0, 0.0, 0.0, 0.0, 0.0, 1.7184691270028555E9, 0.0, 2024-06-15 11:32:07.002
23.0, 49294.11253858954, 68853.72178002856, -6534.107808364369, -187500.02235174447, 72250.8516610684, -187500.02235174447, -187500.02235174447, -187500.02235174447, -0.22, 0.9580000000000001, 0.082, 192.0, 0.0, 0.0, 0.0, 0.0, 0.0, 0.0, 0.0, 0.0, 0.0, 1.7184691270028863E9, 0.0, 2024-06-15 11:32:07.002
24.0, 49151.68722292033, 68700.85819969872, -5785.391424344948, -187500.02235174447, 72289.4084202538, -187500.02235174447, -187500.02235174447, -187500.02235174447, -0.22, 0.9580000000000001, 0.082, 192.0, 0.0, 0.0, 0.0, 0.0, 0.0, 0.0, 0.0, 0.0, 0.0, 1.7184691270028968E9, 0.0, 2024-06-15 11:32:07.002
25.0, 49147.5521501961, 68706.60259802373, -4241.310565627881, -187500.02235174447, 72081.78306600846, -187500.02235174447, -187500.02235174447, -187500.02235174447, -0.22, 0.9520000000000001, 0.082, 192.0, 249.0, 32.0, 29.0, 192.0, 2.0, 144.0, 0.0, 0.0, 0.0, 1.7184691270029073E9, 0.0, 2024-06-15 11:32:07.002
26.0, 49212.23809864975, 68759.64328761617, -4618.183328888814, -187500.02235174447, 72107.2193511986, -187500.02235174447, -187500.02235174447, -187500.02235174447, -0.22, 0.9520000000000001, 0.082, 192.0, 0.0, 0.0, 0.0, 0.0, 0.0, 0.0, 0.0, 0.0, 0.0, 1.7184691270029185E9, 0.0, 2024-06-15 11:32:07.002
27.0, 49292.70437868886, 68851.26308813848, -6305.9635527090495, -187500.02235174447, 72220.296826398, -187500.02235174447, -187500.02235174447, -187500.02235174447, -0.22, 0.9520000000000001, 0.082, 192.0, 0.0, 0.0, 0.0, 0.0, 0.0, 0.0, 0.0, 0.0, 0.0, 1.7184691270029452E9, 0.0, 2024-06-15 11:32:07.002
28.0, 49202.42568283388, 68748.7803398109, -6092.660855372054, -187500.02235174447, 72326.57937128299, -187500.02235174447, -187500.02235174447, -187500.02235174447, -0.22, 0.9520000000000001, 0.082, 192.0, 0.0, 0.0, 0.0, 0.0, 0.0, 0.0, 0.0, 0.0, 0.0, 1.718469127002977E9, 0.0, 2024-06-15 11:32:07.002
29.0, 49149.072068819056, 68698.93594967556, -4414.737750856609, -187500.02235174447, 72116.18240072519, -187500.02235174447, -187500.02235174447, -187500.02235174447, -0.22, 0.9520000000000001, 0.082, 192.0, 0.0, 0.0, 0.0, 0.0, 0.0, 0.0, 0.0, 0.0, 0.0, 1.7184691270029898E9, 0.0, 2024-06-15 11:32:07.002
30.0, 49202.626848533975, 68745.53933686488, -4506.692827545742, -187500.02235174447, 72093.49538010304, -187500.02235174447, -187500.02235174447, -187500.02235174447, -0.22, 0.9520000000000001, 0.082, 192.0, 0.0, 0.0, 0.0, 0.0, 0.0, 0.0, 0.0, 0.0, 0.0, 1.7184691270030181E9, 0.0, 2024-06-15 11:32:07.003
31.0, 49268.36332897703, 68816.88610516621, -6094.560753650756, -187500.02235174447, 72199.46500056566, -187500.02235174447, -187500.02235174447, -187500.02235174447, -0.22, 0.9520000000000001, 0.082, 192.0, 0.0, 0.0, 0.0, 0.0, 0.0, 0.0, 0.0, 0.0, 0.0, 1.7184691270030284E9, 0.0, 2024-06-15 11:32:07.003
32.0, 49197.59770603153, 68742.9241827636, -6322.01210522796, -187500.02235174447, 72328.65808351732, -187500.02235174447, -187500.02235174447, -187500.02235174447, -0.22, 0.9520000000000001, 0.082, 192.0, 0.0, 0.0, 0.0, 0.0, 0.0, 0.0, 0.0, 0.0, 0.0, 1.718469127003059E9, 0.0, 2024-06-15 11:32:07.003
33.0, 49111.92346953434, 68659.68628641203, -4572.228142288702, -187500.02235174447, 72115.4671449026, -187500.02235174447, -187500.02235174447, -187500.02235174447, -0.22, 0.9520000000000001, 0.082, 192.0, 0.0, 0.0, 0.0, 0.0, 0.0, 0.0, 0.0, 0.0, 0.0, 1.7184691270030694E9, 0.0, 2024-06-15 11:32:07.003
34.0, 49226.78908429016, 68773.45666568955, -4432.574442931944, -187500.02235174447, 72081.60425205281, -187500.02235174447, -187500.02235174447, -187500.02235174447, -0.22, 0.9520000000000001, 0.082, 192.0, 0.0, 0.0, 0.0, 0.0, 0.0, 0.0, 0.0, 0.0, 0.0, 1.71846912700308E9, 0.0, 2024-06-15 11:32:07.003
35.0, 49273.21365752383, 68820.90941916817, -5835.7275528582995, -187500.02235174447, 72194.86054120786, -187500.02235174447, -187500.02235174447, -187500.02235174447, -0.22, 0.9520000000000001, 0.082, 192.0, 0.0, 0.0, 0.0, 0.0, 0.0, 0.0, 0.0, 0.0, 0.0, 1.7184691270030904E9, 0.0, 2024-06-15 11:32:07.003
36.0, 49215.59086031805, 68768.96396505403, -6334.864358289762, -187500.02235174447, 72347.3217901375, -187500.02235174447, -187500.02235174447, -187500.02235174447, -0.22, 0.9560000000000001, 0.082, 192.0, 249.0, 32.0, 29.0, 224.0, 2.0, 144.0, 0.0, 0.0, 0.0, 1.7184691270031168E9, 0.0, 2024-06-15 11:32:07.003
37.0, 49183.40434830241, 68735.19047918207, -5149.998384713935, -187500.02235174447, 72114.14839197975, -187500.02235174447, -187500.02235174447, -187500.02235174447, -0.22, 0.9560000000000001, 0.082, 192.0, 0.0, 0.0, 0.0, 0.0, 0.0, 0.0, 0.0, 0.0, 0.0, 1.7184691270031266E9, 0.0, 2024-06-15 11:32:07.003
38.0, 49283.98719835129, 68840.4001403332, -5247.496694027984, -187500.02235174447, 72104.29127267495, -187500.02235174447, -187500.02235174447, -187500.02235174447, -0.22, 0.9560000000000001, 0.082, 192.0, 0.0, 0.0, 0.0, 0.0, 0.0, 0.0, 0.0, 0.0, 0.0, 1.7184691270031364E9, 0.0, 2024-06-15 11:32:07.003
39.0, 49153.20714154329, 68701.84167645474, -5549.558168597004, -187500.02235174447, 72304.00410938312, -187500.02235174447, -187500.02235174447, -187500.02235174447, -0.22, 0.9560000000000001, 0.082, 192.0, 0.0, 0.0, 0.0, 0.0, 0.0, 0.0, 0.0, 0.0, 0.0, 1.7184691270031464E9, 0.0, 2024-06-15 11:32:07.003
40.0, 49093.93031524782, 68649.04685605131, -5428.188196204686, -187500.02235174447, 72303.80294368303, -187500.02235174447, -187500.02235174447, -187500.02235174447, -0.22, 0.9560000000000001, 0.082, 192.0, 0.0, 0.0, 0.0, 0.0, 0.0, 0.0, 0.0, 0.0, 0.0, 1.7184691270031567E9, 0.0, 2024-06-15 11:32:07.003
41.0, 49220.50824409822, 68769.27688947642, -5080.52916294684, -187500.02235174447, 72061.44297855413, -187500.02235174447, -187500.02235174447, -187500.02235174447, -0.22, 0.9560000000000001, 0.082, 192.0, 0.0, 0.0, 0.0, 0.0, 0.0, 0.0, 0.0, 0.0, 0.0, 1.7184691270031896E9, 0.0, 2024-06-15 11:32:07.003
42.0, 49331.50700706327, 68886.19886472212, -5323.224404242565, -187500.02235174447, 72086.25341489952, -187500.02235174447, -187500.02235174447, -187500.02235174447, -0.22, 0.9560000000000001, 0.082, 192.0, 0.0, 0.0, 0.0, 0.0, 0.0, 0.0, 0.0, 0.0, 0.0, 1.7184691270032048E9, 0.0, 2024-06-15 11:32:07.003
43.0, 49177.0564528771, 68716.99615919545, -5528.078142175454, -187500.02235174447, 72285.49686497413, -187500.02235174447, -187500.02235174447, -187500.02235174447, -0.22, 0.9560000000000001, 0.082, 192.0, 0.0, 0.0, 0.0, 0.0, 0.0, 0.0, 0.0, 0.0, 0.0, 1.718469127003222E9, 0.0, 2024-06-15 11:32:07.003
44.0, 49085.99544596618, 68634.83114657774, -5470.075365313932, -187500.02235174447, 72326.91464744981, -187500.02235174447, -187500.02235174447, -187500.02235174447, -0.22, 0.9560000000000001, 0.082, 192.0, 0.0, 0.0, 0.0, 0.0, 0.0, 0.0, 0.0, 0.0, 0.0, 1.718469127003234E9, 0.0, 2024-06-15 11:32:07.003
45.0, 49162.72898468125, 68706.89317070165, -5061.820752837748, -187500.02235174447, 72092.44484811365, -187500.02235174447, -187500.02235174447, -187500.02235174447, -0.22, 0.9560000000000001, 0.082, 192.0, 0.0, 0.0, 0.0, 0.0, 0.0, 0.0, 0.0, 0.0, 0.0, 1.7184691270032444E9, 0.0, 2024-06-15 11:32:07.003
0.0, 0.0, 0.0, 0.0, 0.0, 0.0, 0.0, 0.0, 0.0, -0.232, 0.9520000000000001, 0.108, 192.0, 248.0, 192.0, 29.0, 192.0, 3.0, 96.0, 0.0, 0.0, 0.0, 1.7184691271189675E9, 0.0, 2024-06-15 11:32:07.118
1.0, 50478.75499472082, 71094.39475469527, -5091.258000285387, -187500.02235174447, 72276.71262940319, -187500.02235174447, -187500.02235174447, -187500.02235174447, -0.232, 0.9520000000000001, 0.108, 192.0, 0.0, 0.0, 0.0, 0.0, 0.0, 0.0, 0.0, 0.0, 0.0, 1.7184691275975163E9, 0.0, 2024-06-15 11:32:07.597
2.0, 50464.22636082487, 71110.532714192, -6254.129857317193, -187500.02235174447, 72630.07135749715, -187500.02235174447, -187500.02235174447, -187500.02235174447, -0.232, 0.9520000000000001, 0.108, 192.0, 0.0, 0.0, 0.0, 0.0, 0.0, 0.0, 0.0, 0.0, 0.0, 1.7184691275976808E9, 0.0, 2024-06-15 11:32:07.597
3.0, 49926.823368885925, 70625.61161823412, -4338.8535784308415, -187500.02235174447, 72591.51459831174, -187500.02235174447, -187500.02235174447, -187500.02235174447, -0.232, 0.9520000000000001, 0.108, 192.0, 0.0, 0.0, 0.0, 0.0, 0.0, 0.0, 0.0, 0.0, 0.0, 1.7184691275976944E9, 0.0, 2024-06-15 11:32:07.597
4.0, 49899.04015052797, 70570.17929198495, -2999.5146989243867, -187500.02235174447, 72256.3054867155, -187500.02235174447, -187500.02235174447, -187500.02235174447, -0.232, 0.9520000000000001, 0.108, 192.0, 0.0, 0.0, 0.0, 0.0, 0.0, 0.0, 0.0, 0.0, 0.0, 1.7184691275977056E9, 0.0, 2024-06-15 11:32:07.597
5.0, 50395.472394880344, 71019.40465204771, -4642.837303023017, -187500.02235174447, 72222.35318688789, -187500.02235174447, -187500.02235174447, -187500.02235174447, -0.232, 0.9520000000000001, 0.108, 192.0, 0.0, 0.0, 0.0, 0.0, 0.0, 0.0, 0.0, 0.0, 0.0, 1.7184691275977328E9, 0.0, 2024-06-15 11:32:07.597
6.0, 50519.94925975195, 71158.72307523765, -6285.377596065712, -187500.02235174447, 72580.45048480637, -187500.02235174447, -187500.02235174447, -187500.02235174447, -0.232, 0.9520000000000001, 0.108, 192.0, 0.0, 0.0, 0.0, 0.0, 0.0, 0.0, 0.0, 0.0, 0.0, 1.718469127597743E9, 0.0, 2024-06-15 11:32:07.597
7.0, 49992.09046269542, 70691.70572658847, -4746.974080440293, -187500.02235174447, 72619.96836900334, -187500.02235174447, -187500.02235174447, -187500.02235174447, -0.232, 0.9520000000000001, 0.108, 192.0, 0.0, 0.0, 0.0, 0.0, 0.0, 0.0, 0.0, 0.0, 0.0, 1.718469127597753E9, 0.0, 2024-06-15 11:32:07.597
8.0, 49838.0645916539, 70525.63226528553, -2976.4924021354204, -187500.02235174447, 72294.95165287872, -187500.02235174447, -187500.02235174447, -187500.02235174447, -0.232, 0.9520000000000001, 0.116, 192.0, 248.0, 192.0, 29.0, 192.0, 3.0, 160.0, 0.0, 0.0, 0.0, 1.7184691275977633E9, 0.0, 2024-06-15 11:32:07.597
9.0, 50326.80783591364, 70969.71672412357, -4225.3290683423365, -187500.02235174447, 72197.09571565338, -187500.02235174447, -187500.02235174447, -187500.02235174447, -0.232, 0.9520000000000001, 0.116, 192.0, 0.0, 0.0, 0.0, 0.0, 0.0, 0.0, 0.0, 0.0, 0.0, 1.7184691275977733E9, 0.0, 2024-06-15 11:32:07.597
10.0, 50566.08326030771, 71197.88333152335, -6194.294237410336, -187500.02235174447, 72538.9209436084, -187500.02235174447, -187500.02235174447, -187500.02235174447, -0.232, 0.9520000000000001, 0.116, 192.0, 0.0, 0.0, 0.0, 0.0, 0.0, 0.0, 0.0, 0.0, 0.0, 1.7184691275977972E9, 0.0, 2024-06-15 11:32:07.597
11.0, 50110.84528098647, 70808.42653613408, -5211.800958132859, -187500.02235174447, 72660.0003433228, -187500.02235174447, -187500.02235174447, -187500.02235174447, -0.232, 0.9520000000000001, 0.116, 192.0, 0.0, 0.0, 0.0, 0.0, 0.0, 0.0, 0.0, 0.0, 0.0, 1.718469127597808E9, 0.0, 2024-06-15 11:32:07.597
12.0, 49813.410617519694, 70511.61772151206, -3135.167436023645, -187500.02235174447, 72377.54134864108, -187500.02235174447, -187500.02235174447, -187500.02235174447, -0.232, 0.9520000000000001, 0.116, 192.0, 0.0, 0.0, 0.0, 0.0, 0.0, 0.0, 0.0, 0.0, 0.0, 1.718469127597818E9, 0.0, 2024-06-15 11:32:07.597
13.0, 50220.12295962846, 70872.75485667645, -3904.8274045976887, -187500.02235174447, 72162.96460187013, -187500.02235174447, -187500.02235174447, -187500.02235174447, -0.232, 0.9520000000000001, 0.116, 192.0, 0.0, 0.0, 0.0, 0.0, 0.0, 0.0, 0.0, 0.0, 0.0, 1.718469127597828E9, 0.0, 2024-06-15 11:32:07.597
14.0, 50560.607082916154, 71183.57821507195, -5983.7631563857985, -187500.02235174447, 72480.76170453569, -187500.02235174447, -187500.02235174447, -187500.02235174447, -0.232, 0.9520000000000001, 0.116, 192.0, 0.0, 0.0, 0.0, 0.0, 0.0, 0.0, 0.0, 0.0, 0.0, 1.718469127597838E9, 0.0, 2024-06-15 11:32:07.597
15.0, 50205.90725015489, 70908.62940652721, -5525.0383049295315, -187500.02235174447, 72650.63496239603, -187500.02235174447, -187500.02235174447, -187500.02235174447, -0.232, 0.9520000000000001, 0.116, 192.0, 0.0, 0.0, 0.0, 0.0, 0.0, 0.0, 0.0, 0.0, 0.0, 1.7184691275978477E9, 0.0, 2024-06-15 11:32:07.597
16.0, 49789.784823630434, 70492.77520093623, -3315.2330893555986, -187500.02235174447, 72421.30606428458, -187500.02235174447, -187500.02235174447, -187500.02235174447, -0.232, 0.9520000000000001, 0.116, 192.0, 0.0, 0.0, 0.0, 0.0, 0.0, 0.0, 0.0, 0.0, 0.0, 1.7184691275978577E9, 0.0, 2024-06-15 11:32:07.597
17.0, 50129.82191202902, 70771.92613743855, -3526.993516325178, -187500.02235174447, 72159.41067450175, -187500.02235174447, -187500.02235174447, -187500.02235174447, -0.232, 0.9520000000000001, 0.116, 192.0, 0.0, 0.0, 0.0, 0.0, 0.0, 0.0, 0.0, 0.0, 0.0, 1.7184691275978677E9, 0.0, 2024-06-15 11:32:07.597
18.0, 50553.38746945709, 71149.64826698879, -5742.587833713035, -187500.02235174447, 72415.02522409263, -187500.02235174447, -187500.02235174447, -187500.02235174447, -0.234, 0.9580000000000001, 0.124, 192.0, 248.0, 176.0, 29.0, 240.0, 3.0, 224.0, 0.0, 0.0, 0.0, 1.7184691275978775E9, 0.0, 2024-06-15 11:32:07.597
19.0, 50335.05562961765, 70993.52133196847, -5828.686753354878, -187500.02235174447, 72674.01488709627, -187500.02235174447, -187500.02235174447, -187500.02235174447, -0.234, 0.9580000000000001, 0.124, 192.0, 0.0, 0.0, 0.0, 0.0, 0.0, 0.0, 0.0, 0.0, 0.0, 1.7184691275978875E9, 0.0, 2024-06-15 11:32:07.597
20.0, 49850.15688540422, 70545.57002133966, -3661.9309976018667, -187500.02235174447, 72513.81993458509, -187500.02235174447, -187500.02235174447, -187500.02235174447, -0.234, 0.9580000000000001, 0.124, 192.0, 0.0, 0.0, 0.0, 0.0, 0.0, 0.0, 0.0, 0.0, 0.0, 1.7184691275978975E9, 0.0, 2024-06-15 11:32:07.597
21.0, 50038.9620708182, 70704.3344622057, -3269.1214405443, -187500.02235174447, 72187.50681728206, -187500.02235174447, -187500.02235174447, -187500.02235174447, -0.234, 0.9580000000000001, 0.124, 192.0, 0.0, 0.0, 0.0, 0.0, 0.0, 0.0, 0.0, 0.0, 0.0, 1.7184691275979073E9, 0.0, 2024-06-15 11:32:07.597
22.0, 50524.66547783202, 71140.86403141785, -5493.321179547451, -187500.02235174447, 72353.66968556281, -187500.02235174447, -187500.02235174447, -187500.02235174447, -0.234, 0.9580000000000001, 0.124, 192.0, 0.0, 0.0, 0.0, 0.0, 0.0, 0.0, 0.0, 0.0, 0.0, 1.7184691275979173E9, 0.0, 2024-06-15 11:32:07.597
23.0, 50406.4471014079, 71058.29668739995, -6060.496695100867, -187500.02235174447, 72652.06547404117, -187500.02235174447, -187500.02235174447, -187500.02235174447, -0.234, 0.9580000000000001, 0.124, 192.0, 0.0, 0.0, 0.0, 0.0, 0.0, 0.0, 0.0, 0.0, 0.0, 1.718469127597927E9, 0.0, 2024-06-15 11:32:07.597
24.0, 49901.6776563737, 70595.28030100827, -4057.0204325938744, -187500.02235174447, 72565.40776078794, -187500.02235174447, -187500.02235174447, -187500.02235174447, -0.234, 0.9580000000000001, 0.124, 192.0, 0.0, 0.0, 0.0, 0.0, 0.0, 0.0, 0.0, 0.0, 0.0, 1.718469127597937E9, 0.0, 2024-06-15 11:32:07.597
25.0, 49952.952558154175, 70612.64760645005, -3076.7399760174726, -187500.02235174447, 72225.5047828561, -187500.02235174447, -187500.02235174447, -187500.02235174447, -0.234, 0.9580000000000001, 0.124, 192.0, 0.0, 0.0, 0.0, 0.0, 0.0, 0.0, 0.0, 0.0, 0.0, 1.7184691275979471E9, 0.0, 2024-06-15 11:32:07.597
26.0, 50456.06797409868, 71069.18198694968, -5062.0219185378455, -187500.02235174447, 72274.43275146875, -187500.02235174447, -187500.02235174447, -187500.02235174447, -0.234, 0.9580000000000001, 0.124, 192.0, 0.0, 0.0, 0.0, 0.0, 0.0, 0.0, 0.0, 0.0, 0.0, 1.718469127597957E9, 0.0, 2024-06-15 11:32:07.597
27.0, 50480.18550636596, 71108.65516765775, -6146.21563508697, -187500.02235174447, 72624.10344172758, -187500.02235174447, -187500.02235174447, -187500.02235174447, -0.234, 0.9580000000000001, 0.124, 192.0, 0.0, 0.0, 0.0, 0.0, 0.0, 0.0, 0.0, 0.0, 0.0, 1.7184691275979667E9, 0.0, 2024-06-15 11:32:07.597
28.0, 49987.620113804354, 70677.42296188152, -4471.175905606259, -187500.02235174447, 72607.63020606402, -187500.02235174447, -187500.02235174447, -187500.02235174447, -0.23, 0.9560000000000001, 0.128, 192.0, 248.0, 208.0, 29.0, 224.0, 4.0, 0.0, 0.0, 0.0, 0.0, 1.7184691275979764E9, 0.0, 2024-06-15 11:32:07.597
29.0, 49896.31323770443, 70572.57092864167, -2999.693512880029, -187500.02235174447, 72276.66792591428, -187500.02235174447, -187500.02235174447, -187500.02235174447, -0.23, 0.9560000000000001, 0.128, 192.0, 0.0, 0.0, 0.0, 0.0, 0.0, 0.0, 0.0, 0.0, 0.0, 1.7184691275979867E9, 0.0, 2024-06-15 11:32:07.597
30.0, 50385.81644127565, 71028.3677015743, -4609.846128206984, -187500.02235174447, 72218.88866649731, -187500.02235174447, -187500.02235174447, -187500.02235174447, -0.23, 0.9560000000000001, 0.128, 192.0, 0.0, 0.0, 0.0, 0.0, 0.0, 0.0, 0.0, 0.0, 0.0, 1.7184691275979967E9, 0.0, 2024-06-15 11:32:07.597
31.0, 50517.24469867286, 71144.77558669753, -6125.964954610462, -187500.02235174447, 72574.77314171472, -187500.02235174447, -187500.02235174447, -187500.02235174447, -0.23, 0.9560000000000001, 0.128, 192.0, 0.0, 0.0, 0.0, 0.0, 0.0, 0.0, 0.0, 0.0, 0.0, 1.7184691275980065E9, 0.0, 2024-06-15 11:32:07.598
32.0, 50041.66663189729, 70728.31788400625, -4841.633718208518, -187500.02235174447, 72613.30754915567, -187500.02235174447, -187500.02235174447, -187500.02235174447, -0.23, 0.9560000000000001, 0.128, 192.0, 0.0, 0.0, 0.0, 0.0, 0.0, 0.0, 0.0, 0.0, 0.0, 1.7184691275980163E9, 0.0, 2024-06-15 11:32:07.598
33.0, 49825.90524267021, 70492.41757302494, -2976.0006637574033, -187500.02235174447, 72317.48221128968, -187500.02235174447, -187500.02235174447, -187500.02235174447, -0.23, 0.9560000000000001, 0.128, 192.0, 0.0, 0.0, 0.0, 0.0, 0.0, 0.0, 0.0, 0.0, 0.0, 1.718469127598026E9, 0.0, 2024-06-15 11:32:07.598
34.0, 50316.123702064004, 70941.06178773187, -4157.1785994981055, -187500.02235174447, 72189.27260509404, -187500.02235174447, -187500.02235174447, -187500.02235174447, -0.23, 0.9560000000000001, 0.128, 192.0, 0.0, 0.0, 0.0, 0.0, 0.0, 0.0, 0.0, 0.0, 0.0, 1.7184691275980356E9, 0.0, 2024-06-15 11:32:07.598
35.0, 50568.56430394224, 71171.21770038817, -6050.7960380072645, -187500.02235174447, 72536.23873427376, -187500.02235174447, -187500.02235174447, -187500.02235174447, -0.23, 0.9560000000000001, 0.128, 192.0, 0.0, 0.0, 0.0, 0.0, 0.0, 0.0, 0.0, 0.0, 0.0, 1.7184691275980456E9, 0.0, 2024-06-15 11:32:07.598
36.0, 50154.63234837441, 70825.21269622001, -5248.994260906489, -187500.02235174447, 72639.9508285464, -187500.02235174447, -187500.02235174447, -187500.02235174447, -0.23, 0.9560000000000001, 0.128, 192.0, 0.0, 0.0, 0.0, 0.0, 0.0, 0.0, 0.0, 0.0, 0.0, 1.7184691275980551E9, 0.0, 2024-06-15 11:32:07.598
37.0, 49810.10255934031, 70478.93947111838, -3144.778686139427, -187500.02235174447, 72375.50733989564, -187500.02235174447, -187500.02235174447, -187500.02235174447, -0.23, 0.9560000000000001, 0.128, 192.0, 0.0, 0.0, 0.0, 0.0, 0.0, 0.0, 0.0, 0.0, 0.0, 1.7184691275980651E9, 0.0, 2024-06-15 11:32:07.598
38.0, 50208.07536936705, 70836.34386495875, -3752.2543969457624, -187500.02235174447, 72158.42719774571, -187500.02235174447, -187500.02235174447, -187500.02235174447, -0.23, 0.9560000000000001, 0.128, 192.0, 0.0, 0.0, 0.0, 0.0, 0.0, 0.0, 0.0, 0.0, 0.0, 1.718469127598075E9, 0.0, 2024-06-15 11:32:07.598
39.0, 50554.70622237995, 71153.51511877956, -5844.511788429236, -187500.02235174447, 72457.18061413534, -187500.02235174447, -187500.02235174447, -187500.02235174447, -0.224, 0.962, 0.138, 192.0, 249.0, 0.0, 30.0, 16.0, 4.0, 80.0, 0.0, 0.0, 0.0, 1.7184691275980847E9, 0.0, 2024-06-15 11:32:07.598
40.0, 50228.549567288115, 70898.81699071133, -5516.768159481068, -187500.02235174447, 72636.4416046669, -187500.02235174447, -187500.02235174447, -187500.02235174447, -0.224, 0.962, 0.138, 192.0, 0.0, 0.0, 0.0, 0.0, 0.0, 0.0, 0.0, 0.0, 0.0, 1.7184691275980947E9, 0.0, 2024-06-15 11:32:07.598
41.0, 49809.923745384665, 70499.637186484, -3338.680069289216, -187500.02235174447, 72438.49455577071, -187500.02235174447, -187500.02235174447, -187500.02235174447, -0.224, 0.962, 0.138, 192.0, 0.0, 0.0, 0.0, 0.0, 0.0, 0.0, 0.0, 0.0, 0.0, 1.7184691275981047E9, 0.0, 2024-06-15 11:32:07.598
42.0, 50102.977466938195, 70756.72695120896, -3370.933636538224, -187500.02235174447, 72159.41067450175, -187500.02235174447, -187500.02235174447, -187500.02235174447, -0.224, 0.962, 0.138, 192.0, 0.0, 0.0, 0.0, 0.0, 0.0, 0.0, 0.0, 0.0, 0.0, 1.7184691275981147E9, 0.0, 2024-06-15 11:32:07.598
43.0, 50526.990059255375, 71144.35090355288, -5562.812753059001, -187500.02235174447, 72372.24398520518, -187500.02235174447, -187500.02235174447, -187500.02235174447, -0.224, 0.962, 0.138, 192.0, 0.0, 0.0, 0.0, 0.0, 0.0, 0.0, 0.0, 0.0, 0.0, 1.7184691275981247E9, 0.0, 2024-06-15 11:32:07.598
44.0, 50344.08573437759, 70990.79441914492, -5607.53859371407, -187500.02235174447, 72646.9469245609, -187500.02235174447, -187500.02235174447, -187500.02235174447, -0.224, 0.962, 0.138, 192.0, 0.0, 0.0, 0.0, 0.0, 0.0, 0.0, 0.0, 0.0, 0.0, 1.7184691275981352E9, 0.0, 2024-06-15 11:32:07.598
45.0, 49878.94593226266, 70536.78578576872, -2850.048583751748, -187500.02235174447, 72541.29022852067, -187500.02235174447, -187500.02235174447, -187500.02235174447, -0.224, 0.962, 0.138, 192.0, 0.0, 0.0, 0.0, 0.0, 0.0, 0.0, 0.0, 0.0, 0.0, 1.718469127598145E9, 0.0, 2024-06-15 11:32:07.598
46.0, 49973.60557003088, 70631.69129272595, -1942.8359797997452, -187500.02235174447, 72180.8907009233, -187500.02235174447, -187500.02235174447, -187500.02235174447, -0.224, 0.962, 0.138, 192.0, 0.0, 0.0, 0.0, 0.0, 0.0, 0.0, 0.0, 0.0, 0.0, 1.7184691275981548E9, 0.0, 2024-06-15 11:32:07.598
47.0, 50447.19433154992, 71110.286845003, -4786.223743703812, -187500.02235174447, 72222.48729735462, -187500.02235174447, -187500.02235174447, -187500.02235174447, -0.224, 0.962, 0.138, 192.0, 0.0, 0.0, 0.0, 0.0, 0.0, 0.0, 0.0, 0.0, 0.0, 1.7184691275981646E9, 0.0, 2024-06-15 11:32:07.598
48.0, 50426.54131967322, 71090.95258604916, -6355.7408876110185, -187500.02235174447, 72596.20846464735, -187500.02235174447, -187500.02235174447, -187500.02235174447, -0.224, 0.962, 0.138, 192.0, 0.0, 0.0, 0.0, 0.0, 0.0, 0.0, 0.0, 0.0, 0.0, 1.7184691275981746E9, 0.0, 2024-06-15 11:32:07.598
49.0, 49925.39285724078, 70573.93438505345, -3648.5199509286826, -187500.02235174447, 72591.26872912273, -187500.02235174447, -187500.02235174447, -187500.02235174447, -0.224, 0.9560000000000001, 0.136, 192.0, 249.0, 0.0, 29.0, 224.0, 4.0, 64.0, 0.0, 0.0, 0.0, 1.7184691275981843E9, 0.0, 2024-06-15 11:32:07.598
50.0, 49894.34628419236, 70539.69151254791, -1953.38600318265, -187500.02235174447, 72201.58841628891, -187500.02235174447, -187500.02235174447, -187500.02235174447, -0.224, 0.9560000000000001, 0.136, 192.0, 0.0, 0.0, 0.0, 0.0, 0.0, 0.0, 0.0, 0.0, 0.0, 1.7184691275981944E9, 0.0, 2024-06-15 11:32:07.598
51.0, 50385.10118545308, 71036.21316387811, -4334.338526050869, -187500.02235174447, 72162.15993906975, -187500.02235174447, -187500.02235174447, -187500.02235174447, -0.224, 0.9560000000000001, 0.136, 192.0, 0.0, 0.0, 0.0, 0.0, 0.0, 0.0, 0.0, 0.0, 0.0, 1.7184691275982084E9, 0.0, 2024-06-15 11:32:07.598
52.0, 50491.0708059157, 71143.45683377468, -6578.565428085974, -187500.02235174447, 72541.17846979838, -187500.02235174447, -187500.02235174447, -187500.02235174447, -0.224, 0.9560000000000001, 0.136, 192.0, 0.0, 0.0, 0.0, 0.0, 0.0, 0.0, 0.0, 0.0, 0.0, 1.7184691275982182E9, 0.0, 2024-06-15 11:32:07.598
53.0, 50028.0097160351, 70677.5347206038, -4379.444346361679, -187500.02235174447, 72654.21124150888, -187500.02235174447, -187500.02235174447, -187500.02235174447, -0.224, 0.9560000000000001, 0.136, 192.0, 0.0, 0.0, 0.0, 0.0, 0.0, 0.0, 0.0, 0.0, 0.0, 1.718469127598228E9, 0.0, 2024-06-15 11:32:07.598
54.0, 49881.62814159729, 70540.22795441485, -2098.426472953138, -187500.02235174447, 72303.89235066084, -187500.02235174447, -187500.02235174447, -187500.02235174447, -0.224, 0.9560000000000001, 0.136, 192.0, 0.0, 0.0, 0.0, 0.0, 0.0, 0.0, 0.0, 0.0, 0.0, 1.718469127598238E9, 0.0, 2024-06-15 11:32:07.598
55.0, 50312.837995629074, 70976.48930269353, -3850.847941738122, -187500.02235174447, 72146.4243109732, -187500.02235174447, -187500.02235174447, -187500.02235174447, -0.224, 0.9560000000000001, 0.136, 192.0, 0.0, 0.0, 0.0, 0.0, 0.0, 0.0, 0.0, 0.0, 0.0, 1.7184691275982475E9, 0.0, 2024-06-15 11:32:07.598
56.0, 50515.47891086089, 71162.43346481722, -6556.526608053042, -187500.02235174447, 72471.41867535337, -187500.02235174447, -187500.02235174447, -187500.02235174447, -0.224, 0.9560000000000001, 0.136, 192.0, 0.0, 0.0, 0.0, 0.0, 0.0, 0.0, 0.0, 0.0, 0.0, 1.7184691275982575E9, 0.0, 2024-06-15 11:32:07.598
57.0, 50100.56347853703, 70740.00784635638, -5007.170737644522, -187500.02235174447, 72663.17429103545, -187500.02235174447, -187500.02235174447, -187500.02235174447, -0.224, 0.9560000000000001, 0.136, 192.0, 0.0, 0.0, 0.0, 0.0, 0.0, 0.0, 0.0, 0.0, 0.0, 1.7184691275982673E9, 0.0, 2024-06-15 11:32:07.598
58.0, 49842.28907135595, 70483.58863396509, -2243.668108423723, -187500.02235174447, 72363.6832670788, -187500.02235174447, -187500.02235174447, -187500.02235174447, -0.224, 0.9560000000000001, 0.136, 192.0, 0.0, 0.0, 0.0, 0.0, 0.0, 0.0, 0.0, 0.0, 0.0, 1.718469127598277E9, 0.0, 2024-06-15 11:32:07.598
59.0, 50237.02087843668, 70883.84132192627, -3325.0455051714785, -187500.02235174447, 72137.48361319109, -187500.02235174447, -187500.02235174447, -187500.02235174447, -0.222, 0.9520000000000001, 0.136, 192.0, 249.0, 16.0, 29.0, 192.0, 4.0, 64.0, 0.0, 0.0, 0.0, 1.7184691275982869E9, 0.0, 2024-06-15 11:32:07.598
60.0, 50543.396239685564, 71189.12144769686, -6357.417268445167, -187500.02235174447, 72404.22933152072, -187500.02235174447, -187500.02235174447, -187500.02235174447, -0.222, 0.9520000000000001, 0.136, 192.0, 0.0, 0.0, 0.0, 0.0, 0.0, 0.0, 0.0, 0.0, 0.0, 1.7184691275982966E9, 0.0, 2024-06-15 11:32:07.598
61.0, 50203.18033733134, 70849.5760976763, -5632.125512614908, -187500.02235174447, 72667.01879108176, -187500.02235174447, -187500.02235174447, -187500.02235174447, -0.222, 0.9520000000000001, 0.136, 192.0, 0.0, 0.0, 0.0, 0.0, 0.0, 0.0, 0.0, 0.0, 0.0, 1.718469127598307E9, 0.0, 2024-06-15 11:32:07.598
62.0, 49835.47178929708, 70480.28057578571, -2569.0201007151727, -187500.02235174447, 72434.2477243242, -187500.02235174447, -187500.02235174447, -187500.02235174447, -0.222, 0.9520000000000001, 0.136, 192.0, 0.0, 0.0, 0.0, 0.0, 0.0, 0.0, 0.0, 0.0, 0.0, 1.718469127598317E9, 0.0, 2024-06-15 11:32:07.598
63.0, 50133.532301608604, 70791.41685860358, -2875.507220686343, -187500.02235174447, 72133.05796778893, -187500.02235174447, -187500.02235174447, -187500.02235174447, -0.222, 0.9520000000000001, 0.136, 192.0, 0.0, 0.0, 0.0, 0.0, 0.0, 0.0, 0.0, 0.0, 0.0, 1.7184691275983264E9, 0.0, 2024-06-15 11:32:07.598
64.0, 50528.82290230071, 71193.14476169882, -5990.871011122586, -187500.02235174447, 72331.49675506316, -187500.02235174447, -187500.02235174447, -187500.02235174447, -0.222, 0.9520000000000001, 0.136, 192.0, 0.0, 0.0, 0.0, 0.0, 0.0, 0.0, 0.0, 0.0, 0.0, 1.718469127598336E9, 0.0, 2024-06-15 11:32:07.598
65.0, 50296.54357392115, 70953.22113671555, -6128.781274411831, -187500.02235174447, 72655.77586362074, -187500.02235174447, -187500.02235174447, -187500.02235174447, -0.222, 0.9520000000000001, 0.136, 192.0, 0.0, 0.0, 0.0, 0.0, 0.0, 0.0, 0.0, 0.0, 0.0, 1.7184691275983462E9, 0.0, 2024-06-15 11:32:07.598
66.0, 49849.93336795967, 70491.27763405773, -2970.144506710113, -187500.02235174447, 72500.40888791191, -187500.02235174447, -187500.02235174447, -187500.02235174447, -0.222, 0.9520000000000001, 0.136, 192.0, 0.0, 0.0, 0.0, 0.0, 0.0, 0.0, 0.0, 0.0, 0.0, 1.718469127598356E9, 0.0, 2024-06-15 11:32:07.598
67.0, 50043.79004762055, 70682.94384276198, -2495.371102734936, -187500.02235174447, 72154.7838633995, -187500.02235174447, -187500.02235174447, -187500.02235174447, -0.222, 0.9520000000000001, 0.136, 192.0, 0.0, 0.0, 0.0, 0.0, 0.0, 0.0, 0.0, 0.0, 0.0, 1.7184691275983658E9, 0.0, 2024-06-15 11:32:07.598
68.0, 50501.687884531966, 71148.12834836583, -5491.711853946669, -187500.02235174447, 72266.6096409094, -187500.02235174447, -187500.02235174447, -187500.02235174447, -0.222, 0.9520000000000001, 0.136, 192.0, 0.0, 0.0, 0.0, 0.0, 0.0, 0.0, 0.0, 0.0, 0.0, 1.7184691275983756E9, 0.0, 2024-06-15 11:32:07.598
69.0, 50383.804784274675, 71024.07616663887, -6479.167220493224, -187500.02235174447, 72632.68651159841, -187500.02235174447, -187500.02235174447, -187500.02235174447, -0.224, 0.9520000000000001, 0.13, 192.0, 249.0, 0.0, 29.0, 192.0, 4.0, 16.0, 0.0, 0.0, 0.0, 1.7184691275983853E9, 0.0, 2024-06-15 11:32:07.598
70.0, 49900.44831042866, 70536.651675302, -3483.049986726044, -187500.02235174447, 72573.47674053631, -187500.02235174447, -187500.02235174447, -187500.02235174447, -0.224, 0.9520000000000001, 0.13, 192.0, 0.0, 0.0, 0.0, 0.0, 0.0, 0.0, 0.0, 0.0, 0.0, 1.718469127598395E9, 0.0, 2024-06-15 11:32:07.598
71.0, 49984.31205562497, 70633.70294972694, -2293.1995741366836, -187500.02235174447, 72218.93336998623, -187500.02235174447, -187500.02235174447, -187500.02235174447, -0.224, 0.9520000000000001, 0.13, 192.0, 0.0, 0.0, 0.0, 0.0, 0.0, 0.0, 0.0, 0.0, 0.0, 1.718469127598405E9, 0.0, 2024-06-15 11:32:07.598
72.0, 50445.406191993505, 71105.6823856452, -4952.051335817735, -187500.02235174447, 72227.35997764587, -187500.02235174447, -187500.02235174447, -187500.02235174447, -0.224, 0.9520000000000001, 0.13, 192.0, 0.0, 0.0, 0.0, 0.0, 0.0, 0.0, 0.0, 0.0, 0.0, 1.7184691275984147E9, 0.0, 2024-06-15 11:32:07.598
73.0, 50463.33229104666, 71126.51421147755, -6716.967429753236, -187500.02235174447, 72605.93147348541, -187500.02235174447, -187500.02235174447, -187500.02235174447, -0.224, 0.9520000000000001, 0.13, 192.0, 0.0, 0.0, 0.0, 0.0, 0.0, 0.0, 0.0, 0.0, 0.0, 1.7184691275984244E9, 0.0, 2024-06-15 11:32:07.598
74.0, 49968.91170369527, 70620.09073735366, -4094.861935956709, -187500.02235174447, 72644.13060475953, -187500.02235174447, -187500.02235174447, -187500.02235174447, -0.224, 0.9520000000000001, 0.13, 192.0, 0.0, 0.0, 0.0, 0.0, 0.0, 0.0, 0.0, 0.0, 0.0, 1.7184691275984344E9, 0.0, 2024-06-15 11:32:07.598
75.0, 49916.6309734143, 70565.99951577181, -2196.6400380897567, -187500.02235174447, 72280.82535038298, -187500.02235174447, -187500.02235174447, -187500.02235174447, -0.224, 0.9520000000000001, 0.13, 192.0, 0.0, 0.0, 0.0, 0.0, 0.0, 0.0, 0.0, 0.0, 0.0, 1.718469127598444E9, 0.0, 2024-06-15 11:32:07.598
76.0, 50359.44138281839, 71017.23653283555, -4310.578621694877, -187500.02235174447, 72173.69343920868, -187500.02235174447, -187500.02235174447, -187500.02235174447, -0.224, 0.9520000000000001, 0.13, 192.0, 0.0, 0.0, 0.0, 0.0, 0.0, 0.0, 0.0, 0.0, 0.0, 1.7184691275984538E9, 0.0, 2024-06-15 11:32:07.598
77.0, 50486.37693958008, 71139.76879593954, -6678.70124324575, -187500.02235174447, 72523.69940563434, -187500.02235174447, -187500.02235174447, -187500.02235174447, -0.224, 0.9520000000000001, 0.13, 192.0, 0.0, 0.0, 0.0, 0.0, 0.0, 0.0, 0.0, 0.0, 0.0, 1.7184691275984635E9, 0.0, 2024-06-15 11:32:07.598
78.0, 50033.68705912674, 70683.77085730682, -4629.403904605378, -187500.02235174447, 72653.6971513864, -187500.02235174447, -187500.02235174447, -187500.02235174447, -0.224, 0.9520000000000001, 0.13, 192.0, 0.0, 0.0, 0.0, 0.0, 0.0, 0.0, 0.0, 0.0, 0.0, 1.718469127598474E9, 0.0, 2024-06-15 11:32:07.598
79.0, 49853.822571494886, 70501.00064289579, -2153.3670608242824, -187500.02235174447, 72325.21591487121, -187500.02235174447, -187500.02235174447, -187500.02235174447, -0.224, 0.9520000000000001, 0.13, 192.0, 0.0, 0.0, 0.0, 0.0, 0.0, 0.0, 0.0, 0.0, 0.0, 1.718469127598484E9, 0.0, 2024-06-15 11:32:07.598
80.0, 50278.595123123545, 70930.53411609342, -3665.3284627590733, -187500.02235174447, 72150.33586625289, -187500.02235174447, -187500.02235174447, -187500.02235174447, -0.226, 0.9520000000000001, 0.132, 192.0, 248.0, 240.0, 29.0, 192.0, 4.0, 32.0, 0.0, 0.0, 0.0, 1.718469127598494E9, 0.0, 2024-06-15 11:32:07.598
81.0, 50552.5828066567, 71201.75018331411, -6546.870654448349, -187500.02235174447, 72490.61882384049, -187500.02235174447, -187500.02235174447, -187500.02235174447, -0.226, 0.9520000000000001, 0.132, 192.0, 0.0, 0.0, 0.0, 0.0, 0.0, 0.0, 0.0, 0.0, 0.0, 1.718469127598504E9, 0.0, 2024-06-15 11:32:07.598
82.0, 50141.86950229043, 70787.57235855727, -5244.210987593054, -187500.02235174447, 72699.6076344976, -187500.02235174447, -187500.02235174447, -187500.02235174447, -0.226, 0.9520000000000001, 0.132, 192.0, 0.0, 0.0, 0.0, 0.0, 0.0, 0.0, 0.0, 0.0, 0.0, 1.7184691275985143E9, 0.0, 2024-06-15 11:32:07.598
83.0, 49848.21228363661, 70494.22806432583, -2346.6872986182334, -187500.02235174447, 72411.9406833578, -187500.02235174447, -187500.02235174447, -187500.02235174447, -0.226, 0.9520000000000001, 0.132, 192.0, 0.0, 0.0, 0.0, 0.0, 0.0, 0.0, 0.0, 0.0, 0.0, 1.718469127598524E9, 0.0, 2024-06-15 11:32:07.598
84.0, 50204.40968327638, 70852.54887968885, -3153.7640874104604, -187500.02235174447, 72157.82370064541, -187500.02235174447, -187500.02235174447, -187500.02235174447, -0.226, 0.9520000000000001, 0.132, 192.0, 0.0, 0.0, 0.0, 0.0, 0.0, 0.0, 0.0, 0.0, 0.0, 1.7184691275985336E9, 0.0, 2024-06-15 11:32:07.598
85.0, 50544.80439958625, 71195.24582567762, -6222.680952868575, -187500.02235174447, 72404.60931117646, -187500.02235174447, -187500.02235174447, -187500.02235174447, -0.226, 0.9520000000000001, 0.132, 192.0, 0.0, 0.0, 0.0, 0.0, 0.0, 0.0, 0.0, 0.0, 0.0, 1.7184691275985432E9, 0.0, 2024-06-15 11:32:07.598
86.0, 50241.826503494565, 70881.89672015866, -5762.838514189543, -187500.02235174447, 72693.86323617259, -187500.02235174447, -187500.02235174447, -187500.02235174447, -0.226, 0.9520000000000001, 0.132, 192.0, 0.0, 0.0, 0.0, 0.0, 0.0, 0.0, 0.0, 0.0, 0.0, 1.7184691275985532E9, 0.0, 2024-06-15 11:32:07.598
87.0, 49858.44938259714, 70493.89278815899, -2656.19190409087, -187500.02235174447, 72490.104733718, -187500.02235174447, -187500.02235174447, -187500.02235174447, -0.226, 0.9520000000000001, 0.132, 192.0, 0.0, 0.0, 0.0, 0.0, 0.0, 0.0, 0.0, 0.0, 0.0, 1.718469127598563E9, 0.0, 2024-06-15 11:32:07.598
88.0, 50113.23691764318, 70761.44316928902, -2695.128642932015, -187500.02235174447, 72167.70317169467, -187500.02235174447, -187500.02235174447, -187500.02235174447, -0.226, 0.9520000000000001, 0.132, 192.0, 0.0, 0.0, 0.0, 0.0, 0.0, 0.0, 0.0, 0.0, 0.0, 1.7184691275985727E9, 0.0, 2024-06-15 11:32:07.598
89.0, 50520.95508825244, 71181.18657841523, -5778.015348674697, -187500.02235174447, 72325.48413580467, -187500.02235174447, -187500.02235174447, -187500.02235174447, -0.226, 0.9520000000000001, 0.132, 192.0, 0.0, 0.0, 0.0, 0.0, 0.0, 0.0, 0.0, 0.0, 0.0, 1.7184691275985825E9, 0.0, 2024-06-15 11:32:07.598
90.0, 50334.25096681726, 70987.48636096554, -6218.389417933156, -187500.02235174447, 72670.19273879442, -187500.02235174447, -187500.02235174447, -187500.02235174447, -0.226, 0.9500000000000001, 0.13, 192.0, 248.0, 240.0, 29.0, 176.0, 4.0, 16.0, 0.0, 0.0, 0.0, 1.7184691275985923E9, 0.0, 2024-06-15 11:32:07.598
91.0, 49857.309443629914, 70499.54777950619, -3049.1579233596235, -187500.02235174447, 72534.78587088417, -187500.02235174447, -187500.02235174447, -187500.02235174447, -0.226, 0.9500000000000001, 0.13, 192.0, 0.0, 0.0, 0.0, 0.0, 0.0, 0.0, 0.0, 0.0, 0.0, 1.718469127598602E9, 0.0, 2024-06-15 11:32:07.598
92.0, 50014.062227494986, 70660.9273744735, -2306.3200481319486, -187500.02235174447, 72178.70022996668, -187500.02235174447, -187500.02235174447, -187500.02235174447, -0.226, 0.9500000000000001, 0.13, 192.0, 0.0, 0.0, 0.0, 0.0, 0.0, 0.0, 0.0, 0.0, 0.0, 1.7184691275986116E9, 0.0, 2024-06-15 11:32:07.598
93.0, 50471.84830568413, 71118.42287998473, -5180.664978106615, -187500.02235174447, 72250.22581222365, -187500.02235174447, -187500.02235174447, -187500.02235174447, -0.226, 0.9500000000000001, 0.13, 192.0, 0.0, 0.0, 0.0, 0.0, 0.0, 0.0, 0.0, 0.0, 0.0, 1.7184691275986245E9, 0.0, 2024-06-15 11:32:07.598
94.0, 50412.43736892192, 71049.35598961783, -6454.490894614565, -187500.02235174447, 72631.72538658684, -187500.02235174447, -187500.02235174447, -187500.02235174447, -0.226, 0.9500000000000001, 0.13, 192.0, 0.0, 0.0, 0.0, 0.0, 0.0, 0.0, 0.0, 0.0, 0.0, 1.718469127598634E9, 0.0, 2024-06-15 11:32:07.598
95.0, 49931.47253173262, 70566.33479193864, -3572.4793162917276, -187500.02235174447, 72614.84981952308, -187500.02235174447, -187500.02235174447, -187500.02235174447, -0.226, 0.9500000000000001, 0.13, 192.0, 0.0, 0.0, 0.0, 0.0, 0.0, 0.0, 0.0, 0.0, 0.0, 1.7184691275986438E9, 0.0, 2024-06-15 11:32:07.598
96.0, 49967.570599027946, 70611.32885352717, -2136.9161769051766, -187500.02235174447, 72258.25008848311, -187500.02235174447, -187500.02235174447, -187500.02235174447, -0.226, 0.9500000000000001, 0.13, 192.0, 0.0, 0.0, 0.0, 0.0, 0.0, 0.0, 0.0, 0.0, 0.0, 1.7184691275986536E9, 0.0, 2024-06-15 11:32:07.598
97.0, 50417.51121491328, 71078.36855392082, -4600.503099024666, -187500.02235174447, 72211.84786699389, -187500.02235174447, -187500.02235174447, -187500.02235174447, -0.226, 0.9500000000000001, 0.13, 192.0, 0.0, 0.0, 0.0, 0.0, 0.0, 0.0, 0.0, 0.0, 0.0, 1.718469127598663E9, 0.0, 2024-06-15 11:32:07.598
98.0, 50478.397366809535, 71143.09920586339, -6609.1426145008345, -187500.02235174447, 72581.83629296259, -187500.02235174447, -187500.02235174447, -187500.02235174447, -0.226, 0.9500000000000001, 0.13, 192.0, 0.0, 0.0, 0.0, 0.0, 0.0, 0.0, 0.0, 0.0, 0.0, 1.718469127598673E9, 0.0, 2024-06-15 11:32:07.598
99.0, 49980.19933464519, 70621.99063563236, -4128.300145661849, -187500.02235174447, 72642.43187218092, -187500.02235174447, -187500.02235174447, -187500.02235174447, -0.226, 0.9500000000000001, 0.13, 192.0, 0.0, 0.0, 0.0, 0.0, 0.0, 0.0, 0.0, 0.0, 0.0, 1.7184691275986829E9, 0.0, 2024-06-15 11:32:07.598
100.0, 49889.38419692328, 70530.16966940995, -2004.616201474214, -187500.02235174447, 72289.83310339846, -187500.02235174447, -187500.02235174447, -187500.02235174447, -0.23800000000000002, 0.9580000000000001, 0.136, 192.0, 248.0, 144.0, 29.0, 240.0, 4.0, 64.0, 0.0, 0.0, 0.0, 1.7184691275986934E9, 0.0, 2024-06-15 11:32:07.598
101.0, 50360.804839230164, 71002.35027102832, -3981.560943312758, -187500.02235174447, 72186.3892300593, -187500.02235174447, -187500.02235174447, -187500.02235174447, -0.23800000000000002, 0.9580000000000001, 0.136, 192.0, 0.0, 0.0, 0.0, 0.0, 0.0, 0.0, 0.0, 0.0, 0.0, 1.7184691275987031E9, 0.0, 2024-06-15 11:32:07.598
102.0, 50535.59548087067, 71172.93878471122, -6579.25833216409, -187500.02235174447, 72542.76544365472, -187500.02235174447, -187500.02235174447, -187500.02235174447, -0.23800000000000002, 0.9580000000000001, 0.136, 192.0, 0.0, 0.0, 0.0, 0.0, 0.0, 0.0, 0.0, 0.0, 0.0, 1.7184691275987127E9, 0.0, 2024-06-15 11:32:07.598
103.0, 50081.83271668348, 70707.75427910736, -4752.293795620656, -187500.02235174447, 72700.56875950919, -187500.02235174447, -187500.02235174447, -187500.02235174447, -0.23800000000000002, 0.9580000000000001, 0.136, 192.0, 0.0, 0.0, 0.0, 0.0, 0.0, 0.0, 0.0, 0.0, 0.0, 1.7184691275987225E9, 0.0, 2024-06-15 11:32:07.598
104.0, 49856.92946397418, 70479.20769205186, -2113.3350865048274, -187500.02235174447, 72379.48595040869, -187500.02235174447, -187500.02235174447, -187500.02235174447, -0.23800000000000002, 0.9580000000000001, 0.136, 192.0, 0.0, 0.0, 0.0, 0.0, 0.0, 0.0, 0.0, 0.0, 0.0, 1.7184691275987322E9, 0.0, 2024-06-15 11:32:07.598
105.0, 50258.43384962486, 70890.92682491861, -3402.0696165644667, -187500.02235174447, 72165.08801759339, -187500.02235174447, -187500.02235174447, -187500.02235174447, -0.23800000000000002, 0.9580000000000001, 0.136, 192.0, 0.0, 0.0, 0.0, 0.0, 0.0, 0.0, 0.0, 0.0, 0.0, 1.718469127598742E9, 0.0, 2024-06-15 11:32:07.598
106.0, 50540.557568139746, 71178.12438942485, -6352.902216065195, -187500.02235174447, 72463.08147467155, -187500.02235174447, -187500.02235174447, -187500.02235174447, -0.23800000000000002, 0.9580000000000001, 0.136, 192.0, 0.0, 0.0, 0.0, 0.0, 0.0, 0.0, 0.0, 0.0, 0.0, 1.7184691275987518E9, 0.0, 2024-06-15 11:32:07.598
107.0, 50177.095851551996, 70813.29921642534, -5317.3011919619075, -187500.02235174447, 72710.69409974743, -187500.02235174447, -187500.02235174447, -187500.02235174447, -0.23800000000000002, 0.9580000000000001, 0.136, 192.0, 0.0, 0.0, 0.0, 0.0, 0.0, 0.0, 0.0, 0.0, 0.0, 1.7184691275987616E9, 0.0, 2024-06-15 11:32:07.598
108.0, 49837.55050153143, 70472.0327820817, -2311.393894123303, -187500.02235174447, 72438.20398309278, -187500.02235174447, -187500.02235174447, -187500.02235174447, -0.23800000000000002, 0.9580000000000001, 0.136, 192.0, 0.0, 0.0, 0.0, 0.0, 0.0, 0.0, 0.0, 0.0, 0.0, 1.718469127598771E9, 0.0, 2024-06-15 11:32:07.598
109.0, 50165.38353745741, 70809.65588207911, -2875.8648485976278, -187500.02235174447, 72161.24351754707, -187500.02235174447, -187500.02235174447, -187500.02235174447, -0.23800000000000002, 0.9580000000000001, 0.136, 192.0, 0.0, 0.0, 0.0, 0.0, 0.0, 0.0, 0.0, 0.0, 0.0, 1.718469127598781E9, 0.0, 2024-06-15 11:32:07.598
110.0, 50514.80835852723, 71169.09428466491, -5968.116935267083, -187500.02235174447, 72368.22067120322, -187500.02235174447, -187500.02235174447, -187500.02235174447, -0.234, 0.9580000000000001, 0.138, 192.0, 248.0, 176.0, 29.0, 240.0, 4.0, 80.0, 0.0, 0.0, 0.0, 1.7184691275987954E9, 0.0, 2024-06-15 11:32:07.598
111.0, 50249.22493090927, 70897.78881046639, -5781.882200465465, -187500.02235174447, 72677.94879412041, -187500.02235174447, -187500.02235174447, -187500.02235174447, -0.234, 0.9580000000000001, 0.138, 192.0, 0.0, 0.0, 0.0, 0.0, 0.0, 0.0, 0.0, 0.0, 0.0, 1.7184691275988052E9, 0.0, 2024-06-15 11:32:07.598
112.0, 49841.95379518912, 70481.04053509719, -2632.7225724127975, -187500.02235174447, 72501.72764083477, -187500.02235174447, -187500.02235174447, -187500.02235174447, -0.234, 0.9580000000000001, 0.138, 192.0, 0.0, 0.0, 0.0, 0.0, 0.0, 0.0, 0.0, 0.0, 0.0, 1.7184691275988157E9, 0.0, 2024-06-15 11:32:07.598
113.0, 50076.71416720321, 70728.00495958388, -2437.0330497065843, -187500.02235174447, 72173.42521827522, -187500.02235174447, -187500.02235174447, -187500.02235174447, -0.234, 0.9580000000000001, 0.138, 192.0, 0.0, 0.0, 0.0, 0.0, 0.0, 0.0, 0.0, 0.0, 0.0, 1.7184691275988252E9, 0.0, 2024-06-15 11:32:07.598
114.0, 50517.065884717216, 71162.83579621742, -5507.46983378766, -187500.02235174447, 72312.40836529832, -187500.02235174447, -187500.02235174447, -187500.02235174447, -0.234, 0.9580000000000001, 0.138, 192.0, 0.0, 0.0, 0.0, 0.0, 0.0, 0.0, 0.0, 0.0, 0.0, 1.7184691275988348E9, 0.0, 2024-06-15 11:32:07.598
115.0, 50369.63377829001, 71005.77008792998, -6262.310595787835, -187500.02235174447, 72676.56298596418, -187500.02235174447, -187500.02235174447, -187500.02235174447, -0.234, 0.9580000000000001, 0.138, 192.0, 0.0, 0.0, 0.0, 0.0, 0.0, 0.0, 0.0, 0.0, 0.0, 1.7184691275988448E9, 0.0, 2024-06-15 11:32:07.598
116.0, 49872.575685092896, 70503.16876210795, -3152.579444954329, -187500.02235174447, 72561.04917061915, -187500.02235174447, -187500.02235174447, -187500.02235174447, -0.234, 0.9580000000000001, 0.138, 192.0, 0.0, 0.0, 0.0, 0.0, 0.0, 0.0, 0.0, 0.0, 0.0, 1.7184691275988545E9, 0.0, 2024-06-15 11:32:07.598
117.0, 49985.876677736844, 70633.70294972694, -2172.7907267559444, -187500.02235174447, 72190.21137836116, -187500.02235174447, -187500.02235174447, -187500.02235174447, -0.234, 0.9580000000000001, 0.138, 192.0, 0.0, 0.0, 0.0, 0.0, 0.0, 0.0, 0.0, 0.0, 0.0, 1.7184691275988643E9, 0.0, 2024-06-15 11:32:07.598
118.0, 50452.64815719702, 71129.46464174565, -4948.318594493699, -187500.02235174447, 72226.89059101231, -187500.02235174447, -187500.02235174447, -187500.02235174447, -0.234, 0.9580000000000001, 0.138, 192.0, 0.0, 0.0, 0.0, 0.0, 0.0, 0.0, 0.0, 0.0, 0.0, 1.718469127598874E9, 0.0, 2024-06-15 11:32:07.598
119.0, 50435.5043691998, 71093.4783331726, -6502.010703326548, -187500.02235174447, 72610.73709854331, -187500.02235174447, -187500.02235174447, -187500.02235174447, -0.234, 0.9580000000000001, 0.138, 192.0, 0.0, 0.0, 0.0, 0.0, 0.0, 0.0, 0.0, 0.0, 0.0, 1.7184691275988839E9, 0.0, 2024-06-15 11:32:07.598
120.0, 49921.21308102764, 70549.72744580836, -3695.011579395721, -187500.02235174447, 72600.3882408605, -187500.02235174447, -187500.02235174447, -187500.02235174447, -0.234, 0.9580000000000001, 0.138, 192.0, 0.0, 0.0, 0.0, 0.0, 0.0, 0.0, 0.0, 0.0, 0.0, 1.7184691275988936E9, 0.0, 2024-06-15 11:32:07.598
121.0, 49915.04399955797, 70543.6030678276, -1999.9223351385995, -187500.02235174447, 72225.795355534, -187500.02235174447, -187500.02235174447, -187500.02235174447, -0.23600000000000002, 0.9540000000000001, 0.148, 192.0, 248.0, 160.0, 29.0, 208.0, 4.0, 160.0, 0.0, 0.0, 0.0, 1.7184691280769515E9, 0.0, 2024-06-15 11:32:08.076
122.0, 50390.040920977706, 71030.62522776428, -4333.600918483844, -187500.02235174447, 72174.47575026462, -187500.02235174447, -187500.02235174447, -187500.02235174447, -0.23600000000000002, 0.9540000000000001, 0.148, 192.0, 0.0, 0.0, 0.0, 0.0, 0.0, 0.0, 0.0, 0.0, 0.0, 1.718469128077135E9, 0.0, 2024-06-15 11:32:08.077
123.0, 50497.08342517417, 71139.29940930598, -6575.9726257291595, -187500.02235174447, 72549.49331873577, -187500.02235174447, -187500.02235174447, -187500.02235174447, -0.23600000000000002, 0.9540000000000001, 0.148, 192.0, 0.0, 0.0, 0.0, 0.0, 0.0, 0.0, 0.0, 0.0, 0.0, 1.7184691280771475E9, 0.0, 2024-06-15 11:32:08.077
124.0, 50023.38290493285, 70655.67471452651, -4312.746740907042, -187500.02235174447, 72655.30647698719, -187500.02235174447, -187500.02235174447, -187500.02235174447, -0.23600000000000002, 0.9540000000000001, 0.148, 192.0, 0.0, 0.0, 0.0, 0.0, 0.0, 0.0, 0.0, 0.0, 0.0, 1.7184691280771592E9, 0.0, 2024-06-15 11:32:08.077
125.0, 49884.71268233212, 70519.93257044943, -2025.7833034733897, -187500.02235174447, 72313.79417345455, -187500.02235174447, -187500.02235174447, -187500.02235174447, -0.23600000000000002, 0.9540000000000001, 0.148, 192.0, 0.0, 0.0, 0.0, 0.0, 0.0, 0.0, 0.0, 0.0, 0.0, 1.7184691280771701E9, 0.0, 2024-06-15 11:32:08.077
126.0, 50319.364705010026, 70967.19097700012, -3765.9113128079553, -187500.02235174447, 72155.99085760007, -187500.02235174447, -187500.02235174447, -187500.02235174447, -0.23600000000000002, 0.9540000000000001, 0.148, 192.0, 0.0, 0.0, 0.0, 0.0, 0.0, 0.0, 0.0, 0.0, 0.0, 1.718469128077181E9, 0.0, 2024-06-15 11:32:08.077
127.0, 50532.62269885811, 71185.38870637283, -6511.286677275501, -187500.02235174447, 72483.3098034036, -187500.02235174447, -187500.02235174447, -187500.02235174447, -0.23600000000000002, 0.9540000000000001, 0.148, 192.0, 0.0, 0.0, 0.0, 0.0, 0.0, 0.0, 0.0, 0.0, 0.0, 1.7184691280771918E9, 0.0, 2024-06-15 11:32:08.077
128.0, 50109.481824574694, 70749.88731740562, -4947.133952037568, -187500.02235174447, 72672.47261672886, -187500.02235174447, -187500.02235174447, -187500.02235174447, -0.23600000000000002, 0.9540000000000001, 0.148, 192.0, 0.0, 0.0, 0.0, 0.0, 0.0, 0.0, 0.0, 0.0, 0.0, 1.7184691280772026E9, 0.0, 2024-06-15 11:32:08.077
129.0, 49855.58835930686, 70491.85877941355, -2182.893715249743, -187500.02235174447, 72374.03212476161, -187500.02235174447, -187500.02235174447, -187500.02235174447, -0.23600000000000002, 0.9540000000000001, 0.148, 192.0, 0.0, 0.0, 0.0, 0.0, 0.0, 0.0, 0.0, 0.0, 0.0, 1.718469128077213E9, 0.0, 2024-06-15 11:32:08.077
130.0, 50237.57967204806, 70888.02109813942, -3246.1438472442446, -187500.02235174447, 72138.5788486694, -187500.02235174447, -187500.02235174447, -187500.02235174447, -0.23600000000000002, 0.9540000000000001, 0.148, 192.0, 0.0, 0.0, 0.0, 0.0, 0.0, 0.0, 0.0, 0.0, 0.0, 1.7184691280772233E9, 0.0, 2024-06-15 11:32:08.077
131.0, 50558.70718463745, 71215.54120964304, -6319.48635810451, -187500.02235174447, 72415.02522409263, -187500.02235174447, -187500.02235174447, -187500.02235174447, -0.232, 0.9520000000000001, 0.14400000000000002, 192.0, 248.0, 192.0, 29.0, 192.0, 4.0, 128.0, 0.0, 0.0, 0.0, 1.718469128077234E9, 0.0, 2024-06-15 11:32:08.077
132.0, 50194.440805249316, 70837.48380392598, -5538.672869047269, -187500.02235174447, 72676.11595107507, -187500.02235174447, -187500.02235174447, -187500.02235174447, -0.232, 0.9520000000000001, 0.14400000000000002, 192.0, 0.0, 0.0, 0.0, 0.0, 0.0, 0.0, 0.0, 0.0, 0.0, 1.7184691280772448E9, 0.0, 2024-06-15 11:32:08.077
133.0, 49831.42612355067, 70469.10470355806, -2439.9387764857743, -187500.02235174447, 72431.52081150065, -187500.02235174447, -187500.02235174447, -187500.02235174447, -0.232, 0.9520000000000001, 0.14400000000000002, 192.0, 0.0, 0.0, 0.0, 0.0, 0.0, 0.0, 0.0, 0.0, 0.0, 1.7184691280772555E9, 0.0, 2024-06-15 11:32:08.077
134.0, 50143.54588312458, 70792.60150105972, -2770.319911279668, -187500.02235174447, 72147.4748429626, -187500.02235174447, -187500.02235174447, -187500.02235174447, -0.232, 0.9520000000000001, 0.14400000000000002, 192.0, 0.0, 0.0, 0.0, 0.0, 0.0, 0.0, 0.0, 0.0, 0.0, 1.718469128077266E9, 0.0, 2024-06-15 11:32:08.077
135.0, 50551.68873687849, 71208.92509328427, -5936.913900007475, -187500.02235174447, 72358.11768270942, -187500.02235174447, -187500.02235174447, -187500.02235174447, -0.232, 0.9520000000000001, 0.14400000000000002, 192.0, 0.0, 0.0, 0.0, 0.0, 0.0, 0.0, 0.0, 0.0, 0.0, 1.7184691280772765E9, 0.0, 2024-06-15 11:32:08.077
136.0, 50314.91670786342, 70964.59817464331, -6092.951428049973, -187500.02235174447, 72696.83601818515, -187500.02235174447, -187500.02235174447, -187500.02235174447, -0.232, 0.9520000000000001, 0.14400000000000002, 192.0, 0.0, 0.0, 0.0, 0.0, 0.0, 0.0, 0.0, 0.0, 0.0, 1.7184691280772872E9, 0.0, 2024-06-15 11:32:08.077
137.0, 49853.59905405033, 70497.37966029403, -2896.987247107893, -187500.02235174447, 72520.19018175485, -187500.02235174447, -187500.02235174447, -187500.02235174447, -0.232, 0.9520000000000001, 0.14400000000000002, 192.0, 0.0, 0.0, 0.0, 0.0, 0.0, 0.0, 0.0, 0.0, 0.0, 1.7184691280772977E9, 0.0, 2024-06-15 11:32:08.077
138.0, 50048.48391395616, 70696.84662781318, -2435.177854916794, -187500.02235174447, 72175.4368752762, -187500.02235174447, -187500.02235174447, -187500.02235174447, -0.232, 0.9520000000000001, 0.14400000000000002, 192.0, 0.0, 0.0, 0.0, 0.0, 0.0, 0.0, 0.0, 0.0, 0.0, 1.7184691280773087E9, 0.0, 2024-06-15 11:32:08.077
139.0, 50490.89199196005, 71148.82125244394, -5421.460321123639, -187500.02235174447, 72273.44927471272, -187500.02235174447, -187500.02235174447, -187500.02235174447, -0.232, 0.9520000000000001, 0.14400000000000002, 192.0, 0.0, 0.0, 0.0, 0.0, 0.0, 0.0, 0.0, 0.0, 0.0, 1.7184691280773191E9, 0.0, 2024-06-15 11:32:08.077
140.0, 50378.842697005595, 71030.0664341529, -6408.334542314356, -187500.02235174447, 72637.33567444512, -187500.02235174447, -187500.02235174447, -187500.02235174447, -0.232, 0.9520000000000001, 0.14400000000000002, 192.0, 0.0, 0.0, 0.0, 0.0, 0.0, 0.0, 0.0, 0.0, 0.0, 1.71846912807733E9, 0.0, 2024-06-15 11:32:08.077
141.0, 49905.276287231005, 70542.86546026057, -3403.924811354257, -187500.02235174447, 72585.41257207544, -187500.02235174447, -187500.02235174447, -187500.02235174447, -0.234, 0.9540000000000001, 0.14, 192.0, 248.0, 176.0, 29.0, 208.0, 4.0, 96.0, 0.0, 0.0, 0.0, 1.7184691280773404E9, 0.0, 2024-06-15 11:32:08.077
142.0, 49986.05549169249, 70622.41531877701, -2207.6147446173127, -187500.02235174447, 72224.4542508667, -187500.02235174447, -187500.02235174447, -187500.02235174447, -0.234, 0.9540000000000001, 0.14, 192.0, 0.0, 0.0, 0.0, 0.0, 0.0, 0.0, 0.0, 0.0, 0.0, 1.718469128077351E9, 0.0, 2024-06-15 11:32:08.077
143.0, 50472.83178244016, 71111.91852234823, -4904.844451528126, -187500.02235174447, 72242.76032957558, -187500.02235174447, -187500.02235174447, -187500.02235174447, -0.234, 0.9540000000000001, 0.14, 192.0, 0.0, 0.0, 0.0, 0.0, 0.0, 0.0, 0.0, 0.0, 0.0, 1.718469128077362E9, 0.0, 2024-06-15 11:32:08.077
144.0, 50466.4615352704, 71107.5822839239, -6702.483499346197, -187500.02235174447, 72611.29589215468, -187500.02235174447, -187500.02235174447, -187500.02235174447, -0.234, 0.9540000000000001, 0.14, 192.0, 0.0, 0.0, 0.0, 0.0, 0.0, 0.0, 0.0, 0.0, 0.0, 1.718469128077373E9, 0.0, 2024-06-15 11:32:08.077
145.0, 49948.66102321876, 70583.65739389151, -4032.9476038155085, -187500.02235174447, 72622.67293008244, -187500.02235174447, -187500.02235174447, -187500.02235174447, -0.234, 0.9540000000000001, 0.14, 192.0, 0.0, 0.0, 0.0, 0.0, 0.0, 0.0, 0.0, 0.0, 0.0, 1.7184691280773838E9, 0.0, 2024-06-15 11:32:08.077
146.0, 49887.7748713225, 70526.66044553048, -2127.439037256126, -187500.02235174447, 72244.81669006548, -187500.02235174447, -187500.02235174447, -187500.02235174447, -0.234, 0.9540000000000001, 0.14, 192.0, 0.0, 0.0, 0.0, 0.0, 0.0, 0.0, 0.0, 0.0, 0.0, 1.7184691280773945E9, 0.0, 2024-06-15 11:32:08.077
147.0, 50350.031298402704, 70997.27642503697, -4270.189019464137, -187500.02235174447, 72153.68862792119, -187500.02235174447, -187500.02235174447, -187500.02235174447, -0.234, 0.9540000000000001, 0.14, 192.0, 0.0, 0.0, 0.0, 0.0, 0.0, 0.0, 0.0, 0.0, 0.0, 1.7184691280774052E9, 0.0, 2024-06-15 11:32:08.077
148.0, 50490.13203264857, 71134.67259820373, -6696.716749276728, -187500.02235174447, 72518.08911777605, -187500.02235174447, -187500.02235174447, -187500.02235174447, -0.234, 0.9540000000000001, 0.14, 192.0, 0.0, 0.0, 0.0, 0.0, 0.0, 0.0, 0.0, 0.0, 0.0, 1.7184691280774152E9, 0.0, 2024-06-15 11:32:08.077
149.0, 50032.10008527042, 70665.04009545328, -4622.385456846411, -187500.02235174447, 72656.2005467654, -187500.02235174447, -187500.02235174447, -187500.02235174447, -0.234, 0.9540000000000001, 0.14, 192.0, 0.0, 0.0, 0.0, 0.0, 0.0, 0.0, 0.0, 0.0, 0.0, 1.7184691280774248E9, 0.0, 2024-06-15 11:32:08.077
150.0, 49861.13159193177, 70497.42436378293, -2162.6206830287797, -187500.02235174447, 72327.38403408337, -187500.02235174447, -187500.02235174447, -187500.02235174447, -0.234, 0.9540000000000001, 0.14, 192.0, 0.0, 0.0, 0.0, 0.0, 0.0, 0.0, 0.0, 0.0, 0.0, 1.7184691280774357E9, 0.0, 2024-06-15 11:32:08.077
151.0, 50287.60287613903, 70939.9442005091, -3697.4702712858048, -187500.02235174447, 72150.80525288645, -187500.02235174447, -187500.02235174447, -187500.02235174447, -0.234, 0.9560000000000001, 0.14400000000000002, 192.0, 248.0, 176.0, 29.0, 224.0, 4.0, 128.0, 0.0, 0.0, 0.0, 1.7184691280774465E9, 0.0, 2024-06-15 11:32:08.077
152.0, 50545.40789668654, 71205.88525603834, -6605.432224921254, -187500.02235174447, 72466.2107188953, -187500.02235174447, -187500.02235174447, -187500.02235174447, -0.234, 0.9560000000000001, 0.14400000000000002, 192.0, 0.0, 0.0, 0.0, 0.0, 0.0, 0.0, 0.0, 0.0, 0.0, 1.7184691280774584E9, 0.0, 2024-06-15 11:32:08.077
153.0, 50124.32338289302, 70771.07677114925, -5279.437336854618, -187500.02235174447, 72676.07124758617, -187500.02235174447, -187500.02235174447, -187500.02235174447, -0.234, 0.9560000000000001, 0.14400000000000002, 192.0, 0.0, 0.0, 0.0, 0.0, 0.0, 0.0, 0.0, 0.0, 0.0, 1.718469128077469E9, 0.0, 2024-06-15 11:32:08.077
154.0, 49817.6574489662, 70463.8296918666, -2358.1537435238056, -187500.02235174447, 72376.82609281852, -187500.02235174447, -187500.02235174447, -187500.02235174447, -0.234, 0.9560000000000001, 0.14400000000000002, 192.0, 0.0, 0.0, 0.0, 0.0, 0.0, 0.0, 0.0, 0.0, 0.0, 1.71846912807748E9, 0.0, 2024-06-15 11:32:08.077
155.0, 50165.67411013533, 70817.63545484966, -3146.6115291847623, -187500.02235174447, 72113.29902569044, -187500.02235174447, -187500.02235174447, -187500.02235174447, -0.234, 0.9560000000000001, 0.14400000000000002, 192.0, 0.0, 0.0, 0.0, 0.0, 0.0, 0.0, 0.0, 0.0, 0.0, 1.7184691280774908E9, 0.0, 2024-06-15 11:32:08.077
156.0, 50521.178605696994, 71169.27309862056, -6267.652662712653, -187500.02235174447, 72370.92523228232, -187500.02235174447, -187500.02235174447, -187500.02235174447, -0.234, 0.9560000000000001, 0.14400000000000002, 192.0, 0.0, 0.0, 0.0, 0.0, 0.0, 0.0, 0.0, 0.0, 0.0, 1.7184691280775013E9, 0.0, 2024-06-15 11:32:08.077
157.0, 50220.32412532856, 70854.6275919232, -5803.943372242853, -187500.02235174447, 72681.0556865997, -187500.02235174447, -187500.02235174447, -187500.02235174447, -0.234, 0.9560000000000001, 0.14400000000000002, 192.0, 0.0, 0.0, 0.0, 0.0, 0.0, 0.0, 0.0, 0.0, 0.0, 1.7184691280775137E9, 0.0, 2024-06-15 11:32:08.077
158.0, 49838.42221956518, 70462.44388371038, -2672.128697887504, -187500.02235174447, 72476.85014925602, -187500.02235174447, -187500.02235174447, -187500.02235174447, -0.234, 0.9560000000000001, 0.14400000000000002, 192.0, 0.0, 0.0, 0.0, 0.0, 0.0, 0.0, 0.0, 0.0, 0.0, 1.7184691280775247E9, 0.0, 2024-06-15 11:32:08.077
159.0, 50108.58775479648, 70737.30328527729, -2739.87683533154, -187500.02235174447, 72167.65846820576, -187500.02235174447, -187500.02235174447, -187500.02235174447, -0.234, 0.9560000000000001, 0.14400000000000002, 192.0, 0.0, 0.0, 0.0, 0.0, 0.0, 0.0, 0.0, 0.0, 0.0, 1.7184691280775352E9, 0.0, 2024-06-15 11:32:08.077
160.0, 50532.354477924644, 71170.88242422133, -5878.844067912587, -187500.02235174447, 72332.54728705256, -187500.02235174447, -187500.02235174447, -187500.02235174447, -0.234, 0.9560000000000001, 0.14400000000000002, 192.0, 0.0, 0.0, 0.0, 0.0, 0.0, 0.0, 0.0, 0.0, 0.0, 1.718469128077572E9, 0.0, 2024-06-15 11:32:08.077
161.0, 50319.38705675448, 70954.78575882742, -6303.571916052332, -187500.02235174447, 72670.68447717244, -187500.02235174447, -187500.02235174447, -187500.02235174447, -0.234, 0.9560000000000001, 0.14400000000000002, 192.0, 0.0, 0.0, 0.0, 0.0, 0.0, 0.0, 0.0, 0.0, 0.0, 1.718469128077587E9, 0.0, 2024-06-15 11:32:08.077
162.0, 49852.77203950549, 70483.70039268737, -3134.0498488008798, -187500.02235174447, 72531.3213504936, -187500.02235174447, -187500.02235174447, -187500.02235174447, -0.23800000000000002, 0.9540000000000001, 0.14200000000000002, 192.0, 248.0, 144.0, 29.0, 208.0, 4.0, 112.0, 0.0, 0.0, 0.0, 1.718469128077613E9, 0.0, 2024-06-15 11:32:08.077
163.0, 50015.112759484386, 70648.23158362288, -2441.4810468531905, -187500.02235174447, 72187.12683762632, -187500.02235174447, -187500.02235174447, -187500.02235174447, -0.23800000000000002, 0.9540000000000001, 0.14200000000000002, 192.0, 0.0, 0.0, 0.0, 0.0, 0.0, 0.0, 0.0, 0.0, 0.0, 1.7184691280776234E9, 0.0, 2024-06-15 11:32:08.077
164.0, 50469.18844809395, 71110.06332755844, -5365.893884407746, -187500.02235174447, 72253.26564946958, -187500.02235174447, -187500.02235174447, -187500.02235174447, -0.23800000000000002, 0.9540000000000001, 0.14200000000000002, 192.0, 0.0, 0.0, 0.0, 0.0, 0.0, 0.0, 0.0, 0.0, 0.0, 1.7184691280776331E9, 0.0, 2024-06-15 11:32:08.077
165.0, 50399.2945431822, 71043.85746048183, -6665.290196572566, -187500.02235174447, 72624.30460742768, -187500.02235174447, -187500.02235174447, -187500.02235174447, -0.23800000000000002, 0.9540000000000001, 0.14200000000000002, 192.0, 0.0, 0.0, 0.0, 0.0, 0.0, 0.0, 0.0, 0.0, 0.0, 1.7184691280776432E9, 0.0, 2024-06-15 11:32:08.077
166.0, 49908.137310521284, 70540.38441662602, -3726.684001288891, -187500.02235174447, 72585.14435114198, -187500.02235174447, -187500.02235174447, -187500.02235174447, -0.23800000000000002, 0.9540000000000001, 0.14200000000000002, 192.0, 0.0, 0.0, 0.0, 0.0, 0.0, 0.0, 0.0, 0.0, 0.0, 1.7184691280776527E9, 0.0, 2024-06-15 11:32:08.077
167.0, 49929.23735728709, 70561.68562909194, -2284.0353589100073, -187500.02235174447, 72215.11122168436, -187500.02235174447, -187500.02235174447, -187500.02235174447, -0.23800000000000002, 0.9540000000000001, 0.14200000000000002, 192.0, 0.0, 0.0, 0.0, 0.0, 0.0, 0.0, 0.0, 0.0, 0.0, 1.7184691280776627E9, 0.0, 2024-06-15 11:32:08.077
168.0, 50390.13032795553, 71026.31134108441, -4789.464746649832, -187500.02235174447, 72183.14822711328, -187500.02235174447, -187500.02235174447, -187500.02235174447, -0.23800000000000002, 0.9540000000000001, 0.14200000000000002, 192.0, 0.0, 0.0, 0.0, 0.0, 0.0, 0.0, 0.0, 0.0, 0.0, 1.7184691280776725E9, 0.0, 2024-06-15 11:32:08.077
169.0, 50454.16807581998, 71092.47250467211, -6831.318954386587, -187500.02235174447, 72562.83731017559, -187500.02235174447, -187500.02235174447, -187500.02235174447, -0.23800000000000002, 0.9540000000000001, 0.14200000000000002, 192.0, 0.0, 0.0, 0.0, 0.0, 0.0, 0.0, 0.0, 0.0, 0.0, 1.7184691280776825E9, 0.0, 2024-06-15 11:32:08.077
170.0, 49977.60653228838, 70607.6184639476, -4360.579474041399, -187500.02235174447, 72642.36481694756, -187500.02235174447, -187500.02235174447, -187500.02235174447, -0.23800000000000002, 0.9540000000000001, 0.14200000000000002, 192.0, 0.0, 0.0, 0.0, 0.0, 0.0, 0.0, 0.0, 0.0, 0.0, 1.7184691280776925E9, 0.0, 2024-06-15 11:32:08.077
171.0, 49871.45809787013, 70502.56526500765, -2274.915847172242, -187500.02235174447, 72273.1587020348, -187500.02235174447, -187500.02235174447, -187500.02235174447, -0.23800000000000002, 0.9540000000000001, 0.14200000000000002, 192.0, 0.0, 0.0, 0.0, 0.0, 0.0, 0.0, 0.0, 0.0, 0.0, 1.718469128077702E9, 0.0, 2024-06-15 11:32:08.077
172.0, 50329.691210948375, 70968.17445375615, -4259.035498980939, -187500.02235174447, 72150.40292148625, -187500.02235174447, -187500.02235174447, -187500.02235174447, -0.23600000000000002, 0.9500000000000001, 0.14200000000000002, 192.0, 248.0, 160.0, 29.0, 176.0, 4.0, 112.0, 0.0, 0.0, 0.0, 1.7184691280777118E9, 0.0, 2024-06-15 11:32:08.077
173.0, 50514.696599804956, 71152.5986972569, -6920.971801396823, -187500.02235174447, 72507.9637775378, -187500.02235174447, -187500.02235174447, -187500.02235174447, -0.23600000000000002, 0.9500000000000001, 0.14200000000000002, 192.0, 0.0, 0.0, 0.0, 0.0, 0.0, 0.0, 0.0, 0.0, 0.0, 1.7184691280777216E9, 0.0, 2024-06-15 11:32:08.077
174.0, 50050.45086746822, 70681.7815520503, -5058.959729547469, -187500.02235174447, 72664.6048026806, -187500.02235174447, -187500.02235174447, -187500.02235174447, -0.23600000000000002, 0.9500000000000001, 0.14200000000000002, 192.0, 0.0, 0.0, 0.0, 0.0, 0.0, 0.0, 0.0, 0.0, 0.0, 1.7184691280777311E9, 0.0, 2024-06-15 11:32:08.077
175.0, 49840.1656556327, 70473.66445942695, -2438.2623956516263, -187500.02235174447, 72342.82908950199, -187500.02235174447, -187500.02235174447, -187500.02235174447, -0.23600000000000002, 0.9500000000000001, 0.14200000000000002, 192.0, 0.0, 0.0, 0.0, 0.0, 0.0, 0.0, 0.0, 0.0, 0.0, 1.7184691280777411E9, 0.0, 2024-06-15 11:32:08.077
176.0, 50236.596195292026, 70887.50700801695, -3729.0756379456093, -187500.02235174447, 72126.93358980818, -187500.02235174447, -187500.02235174447, -187500.02235174447, -0.23600000000000002, 0.9500000000000001, 0.14200000000000002, 192.0, 0.0, 0.0, 0.0, 0.0, 0.0, 0.0, 0.0, 0.0, 0.0, 1.7184691280777512E9, 0.0, 2024-06-15 11:32:08.077
177.0, 50528.442922644965, 71179.8454737479, -6754.048973804591, -187500.02235174447, 72421.61898870695, -187500.02235174447, -187500.02235174447, -187500.02235174447, -0.23600000000000002, 0.9500000000000001, 0.14200000000000002, 192.0, 0.0, 0.0, 0.0, 0.0, 0.0, 0.0, 0.0, 0.0, 0.0, 1.7184691280777612E9, 0.0, 2024-06-15 11:32:08.077
178.0, 50164.0424327901, 70802.57037908678, -5723.544147437114, -187500.02235174447, 72673.2549277848, -187500.02235174447, -187500.02235174447, -187500.02235174447, -0.23600000000000002, 0.9500000000000001, 0.14200000000000002, 192.0, 0.0, 0.0, 0.0, 0.0, 0.0, 0.0, 0.0, 0.0, 0.0, 1.7184691280777707E9, 0.0, 2024-06-15 11:32:08.077
179.0, 49842.82551322288, 70468.45650296885, -2763.614387943076, -187500.02235174447, 72419.4955729837, -187500.02235174447, -187500.02235174447, -187500.02235174447, -0.23600000000000002, 0.9500000000000001, 0.14200000000000002, 192.0, 0.0, 0.0, 0.0, 0.0, 0.0, 0.0, 0.0, 0.0, 0.0, 1.718469128077781E9, 0.0, 2024-06-15 11:32:08.077
180.0, 50165.472944435234, 70795.59663481673, -3357.7908107985036, -187500.02235174447, 72137.21539225763, -187500.02235174447, -187500.02235174447, -187500.02235174447, -0.23600000000000002, 0.9500000000000001, 0.14200000000000002, 192.0, 0.0, 0.0, 0.0, 0.0, 0.0, 0.0, 0.0, 0.0, 0.0, 1.718469128077791E9, 0.0, 2024-06-15 11:32:08.077
181.0, 50535.39431517057, 71181.16422667078, -6547.429448059732, -187500.02235174447, 72357.76005479814, -187500.02235174447, -187500.02235174447, -187500.02235174447, -0.23600000000000002, 0.9500000000000001, 0.14200000000000002, 192.0, 0.0, 0.0, 0.0, 0.0, 0.0, 0.0, 0.0, 0.0, 0.0, 1.7184691280778008E9, 0.0, 2024-06-15 11:32:08.077
182.0, 50253.427058866866, 70896.09007788778, -6394.878792152262, -187500.02235174447, 72671.64560218401, -187500.02235174447, -187500.02235174447, -187500.02235174447, -0.23600000000000002, 0.9540000000000001, 0.138, 192.0, 248.0, 160.0, 29.0, 208.0, 4.0, 80.0, 0.0, 0.0, 0.0, 1.7184691280778105E9, 0.0, 2024-06-15 11:32:08.077
183.0, 49842.69140275614, 70469.9317181029, -3231.25758543701, -187500.02235174447, 72485.88025401595, -187500.02235174447, -187500.02235174447, -187500.02235174447, -0.23600000000000002, 0.9540000000000001, 0.138, 192.0, 0.0, 0.0, 0.0, 0.0, 0.0, 0.0, 0.0, 0.0, 0.0, 1.7184691280778203E9, 0.0, 2024-06-15 11:32:08.077
184.0, 50078.83758292646, 70711.37526170912, -3057.5398275303637, -187500.02235174447, 72158.11427332333, -187500.02235174447, -187500.02235174447, -187500.02235174447, -0.23600000000000002, 0.9540000000000001, 0.138, 192.0, 0.0, 0.0, 0.0, 0.0, 0.0, 0.0, 0.0, 0.0, 0.0, 1.7184691280778303E9, 0.0, 2024-06-15 11:32:08.077
185.0, 50501.44201534295, 71143.27801981903, -6142.058210618283, -187500.02235174447, 72275.79620788053, -187500.02235174447, -187500.02235174447, -187500.02235174447, -0.23600000000000002, 0.9540000000000001, 0.138, 192.0, 0.0, 0.0, 0.0, 0.0, 0.0, 0.0, 0.0, 0.0, 0.0, 1.71846912807784E9, 0.0, 2024-06-15 11:32:08.077
186.0, 50344.041030888686, 70976.98104107154, -6876.9835683087795, -187500.02235174447, 72634.76522383276, -187500.02235174447, -187500.02235174447, -187500.02235174447, -0.23600000000000002, 0.9540000000000001, 0.138, 192.0, 0.0, 0.0, 0.0, 0.0, 0.0, 0.0, 0.0, 0.0, 0.0, 1.7184691280778499E9, 0.0, 2024-06-15 11:32:08.077
187.0, 49863.03149021047, 70484.28153804321, -3742.3749258965167, -187500.02235174447, 72533.6235801725, -187500.02235174447, -187500.02235174447, -187500.02235174447, -0.23600000000000002, 0.9540000000000001, 0.138, 192.0, 0.0, 0.0, 0.0, 0.0, 0.0, 0.0, 0.0, 0.0, 0.0, 1.7184691280778596E9, 0.0, 2024-06-15 11:32:08.077
188.0, 49978.120622410854, 70605.60680694661, -2774.2761700482574, -187500.02235174447, 72172.57585198592, -187500.02235174447, -187500.02235174447, -187500.02235174447, -0.23600000000000002, 0.9540000000000001, 0.138, 192.0, 0.0, 0.0, 0.0, 0.0, 0.0, 0.0, 0.0, 0.0, 0.0, 1.7184691280778692E9, 0.0, 2024-06-15 11:32:08.077
189.0, 50445.383840249044, 71082.74949583405, -5578.034291033065, -187500.02235174447, 72207.06459368045, -187500.02235174447, -187500.02235174447, -187500.02235174447, -0.23600000000000002, 0.9540000000000001, 0.138, 192.0, 0.0, 0.0, 0.0, 0.0, 0.0, 0.0, 0.0, 0.0, 0.0, 1.7184691280778792E9, 0.0, 2024-06-15 11:32:08.077
190.0, 50431.972793575864, 71073.60763235184, -7154.32401351023, -187500.02235174447, 72598.80126700416, -187500.02235174447, -187500.02235174447, -187500.02235174447, -0.23600000000000002, 0.9540000000000001, 0.138, 192.0, 0.0, 0.0, 0.0, 0.0, 0.0, 0.0, 0.0, 0.0, 0.0, 1.7184691280778892E9, 0.0, 2024-06-15 11:32:08.077
191.0, 49932.85833988886, 70572.2580042193, -4314.646639185744, -187500.02235174447, 72603.67394729542, -187500.02235174447, -187500.02235174447, -187500.02235174447, -0.23600000000000002, 0.9540000000000001, 0.138, 192.0, 0.0, 0.0, 0.0, 0.0, 0.0, 0.0, 0.0, 0.0, 0.0, 1.7184691280778987E9, 0.0, 2024-06-15 11:32:08.077
192.0, 49932.29954627747, 70573.9567367979, -2652.1909418333703, -187500.02235174447, 72238.73701557363, -187500.02235174447, -187500.02235174447, -187500.02235174447, -0.232, 0.9560000000000001, 0.136, 192.0, 248.0, 192.0, 29.0, 224.0, 4.0, 64.0, 0.0, 0.0, 0.0, 1.7184691280779085E9, 0.0, 2024-06-15 11:32:08.077
193.0, 50398.422825148446, 71038.96242844612, -5020.09004593969, -187500.02235174447, 72184.13170386931, -187500.02235174447, -187500.02235174447, -187500.02235174447, -0.232, 0.9560000000000001, 0.136, 192.0, 0.0, 0.0, 0.0, 0.0, 0.0, 0.0, 0.0, 0.0, 0.0, 1.7184691280779183E9, 0.0, 2024-06-15 11:32:08.077
194.0, 50473.301169073726, 71114.9807113386, -7268.787296865857, -187500.02235174447, 72534.2717807617, -187500.02235174447, -187500.02235174447, -187500.02235174447, -0.232, 0.9560000000000001, 0.136, 192.0, 0.0, 0.0, 0.0, 0.0, 0.0, 0.0, 0.0, 0.0, 0.0, 1.718469128077928E9, 0.0, 2024-06-15 11:32:08.077
195.0, 49991.978703973145, 70621.07421410969, -4925.408056427009, -187500.02235174447, 72629.60197086359, -187500.02235174447, -187500.02235174447, -187500.02235174447, -0.232, 0.9560000000000001, 0.136, 192.0, 0.0, 0.0, 0.0, 0.0, 0.0, 0.0, 0.0, 0.0, 0.0, 1.7184691280779378E9, 0.0, 2024-06-15 11:32:08.077
196.0, 49864.35024313334, 70484.10272408757, -2629.258052022225, -187500.02235174447, 72283.99929809563, -187500.02235174447, -187500.02235174447, -187500.02235174447, -0.232, 0.9560000000000001, 0.136, 192.0, 0.0, 0.0, 0.0, 0.0, 0.0, 0.0, 0.0, 0.0, 0.0, 1.7184691280779476E9, 0.0, 2024-06-15 11:32:08.077
197.0, 50309.99932408325, 70939.2959999199, -4394.799994802474, -187500.02235174447, 72137.9753515691, -187500.02235174447, -187500.02235174447, -187500.02235174447, -0.232, 0.9560000000000001, 0.136, 192.0, 0.0, 0.0, 0.0, 0.0, 0.0, 0.0, 0.0, 0.0, 0.0, 1.7184691280779572E9, 0.0, 2024-06-15 11:32:08.077
198.0, 50517.71408530642, 71156.21967985865, -7200.905048955089, -187500.02235174447, 72472.02217245367, -187500.02235174447, -187500.02235174447, -187500.02235174447, -0.232, 0.9560000000000001, 0.136, 192.0, 0.0, 0.0, 0.0, 0.0, 0.0, 0.0, 0.0, 0.0, 0.0, 1.718469128077967E9, 0.0, 2024-06-15 11:32:08.077
199.0, 50071.2156380672, 70702.16634299354, -5522.0431711725205, -187500.02235174447, 72650.90318332949, -187500.02235174447, -187500.02235174447, -187500.02235174447, -0.232, 0.9560000000000001, 0.136, 192.0, 0.0, 0.0, 0.0, 0.0, 0.0, 0.0, 0.0, 0.0, 0.0, 1.7184691280779767E9, 0.0, 2024-06-15 11:32:08.077
200.0, 49819.37853328926, 70448.07171202562, -2703.6893610583975, -187500.02235174447, 72344.90780173634, -187500.02235174447, -187500.02235174447, -187500.02235174447, -0.232, 0.9560000000000001, 0.136, 192.0, 0.0, 0.0, 0.0, 0.0, 0.0, 0.0, 0.0, 0.0, 0.0, 1.7184691280779865E9, 0.0, 2024-06-15 11:32:08.077
201.0, 50209.7517502012, 70847.20681276404, -3749.527484122215, -187500.02235174447, 72117.9705402816, -187500.02235174447, -187500.02235174447, -187500.02235174447, -0.232, 0.9560000000000001, 0.136, 192.0, 0.0, 0.0, 0.0, 0.0, 0.0, 0.0, 0.0, 0.0, 0.0, 1.7184691280779963E9, 0.0, 2024-06-15 11:32:08.077
202.0, 50552.96278631244, 71190.68606980874, -6900.251734286754, -187500.02235174447, 72407.51503795566, -187500.02235174447, -187500.02235174447, -187500.02235174447, -0.232, 0.9560000000000001, 0.136, 192.0, 0.0, 0.0, 0.0, 0.0, 0.0, 0.0, 0.0, 0.0, 0.0, 1.718469128078006E9, 0.0, 2024-06-15 11:32:08.078
203.0, 50181.208572531774, 70813.54508561434, -6095.007788539861, -187500.02235174447, 72669.0080963383, -187500.02235174447, -187500.02235174447, -187500.02235174447, -0.222, 0.9580000000000001, 0.136, 192.0, 249.0, 16.0, 29.0, 240.0, 4.0, 64.0, 0.0, 0.0, 0.0, 1.7184691280780158E9, 0.0, 2024-06-15 11:32:08.078
204.0, 49801.98887610303, 70429.49741238325, -2925.441017799499, -187500.02235174447, 72405.25751176567, -187500.02235174447, -187500.02235174447, -187500.02235174447, -0.222, 0.9580000000000001, 0.136, 192.0, 0.0, 0.0, 0.0, 0.0, 0.0, 0.0, 0.0, 0.0, 0.0, 1.7184691280780253E9, 0.0, 2024-06-15 11:32:08.078
205.0, 50112.36519960943, 70746.04281735931, -3225.2226144340775, -187500.02235174447, 72115.53420013598, -187500.02235174447, -187500.02235174447, -187500.02235174447, -0.222, 0.9580000000000001, 0.136, 192.0, 0.0, 0.0, 0.0, 0.0, 0.0, 0.0, 0.0, 0.0, 0.0, 1.718469128078035E9, 0.0, 2024-06-15 11:32:08.078
206.0, 50507.36522762361, 71150.02824664454, -6390.7213676835745, -187500.02235174447, 72311.93897866475, -187500.02235174447, -187500.02235174447, -187500.02235174447, -0.222, 0.9580000000000001, 0.136, 192.0, 0.0, 0.0, 0.0, 0.0, 0.0, 0.0, 0.0, 0.0, 0.0, 1.718469128078045E9, 0.0, 2024-06-15 11:32:08.078
207.0, 50287.35700695003, 70919.5370578214, -6511.152566808769, -187500.02235174447, 72659.32979098914, -187500.02235174447, -187500.02235174447, -187500.02235174447, -0.222, 0.9580000000000001, 0.136, 192.0, 0.0, 0.0, 0.0, 0.0, 0.0, 0.0, 0.0, 0.0, 0.0, 1.7184691280780544E9, 0.0, 2024-06-15 11:32:08.078
208.0, 49851.3638796048, 70474.55852920515, -3284.454737240641, -187500.02235174447, 72502.2640827017, -187500.02235174447, -187500.02235174447, -187500.02235174447, -0.222, 0.9580000000000001, 0.136, 192.0, 0.0, 0.0, 0.0, 0.0, 0.0, 0.0, 0.0, 0.0, 0.0, 1.7184691280780675E9, 0.0, 2024-06-15 11:32:08.078
209.0, 50043.834751109454, 70677.19944443696, -2816.2974496242346, -187500.02235174447, 72156.8849273783, -187500.02235174447, -187500.02235174447, -187500.02235174447, -0.222, 0.9580000000000001, 0.136, 192.0, 0.0, 0.0, 0.0, 0.0, 0.0, 0.0, 0.0, 0.0, 0.0, 1.7184691280780776E9, 0.0, 2024-06-15 11:32:08.078
210.0, 50473.569390007186, 71116.56768519494, -5807.474947866792, -187500.02235174447, 72237.77589056204, -187500.02235174447, -187500.02235174447, -187500.02235174447, -0.222, 0.9580000000000001, 0.136, 192.0, 0.0, 0.0, 0.0, 0.0, 0.0, 0.0, 0.0, 0.0, 0.0, 1.7184691280780876E9, 0.0, 2024-06-15 11:32:08.078
211.0, 50358.502609551266, 70996.1588378142, -6799.691235982327, -187500.02235174447, 72606.26674965225, -187500.02235174447, -187500.02235174447, -187500.02235174447, -0.222, 0.9580000000000001, 0.136, 192.0, 0.0, 0.0, 0.0, 0.0, 0.0, 0.0, 0.0, 0.0, 0.0, 1.718469128078097E9, 0.0, 2024-06-15 11:32:08.078
212.0, 49877.33660666187, 70505.15806736446, -3693.9386956618664, -187500.02235174447, 72548.8227664021, -187500.02235174447, -187500.02235174447, -187500.02235174447, -0.222, 0.9580000000000001, 0.136, 192.0, 0.0, 0.0, 0.0, 0.0, 0.0, 0.0, 0.0, 0.0, 0.0, 1.718469128078107E9, 0.0, 2024-06-15 11:32:08.078
213.0, 49954.27131107704, 70593.04512656273, -2467.5655326325336, -187500.02235174447, 72185.87513993682, -187500.02235174447, -187500.02235174447, -187500.02235174447, -0.224, 0.9560000000000001, 0.134, 192.0, 249.0, 0.0, 29.0, 224.0, 4.0, 48.0, 0.0, 0.0, 0.0, 1.718469128078117E9, 0.0, 2024-06-15 11:32:08.078
214.0, 50430.430523208444, 71076.44630389765, -5127.154901880611, -187500.02235174447, 72193.295919096, -187500.02235174447, -187500.02235174447, -187500.02235174447, -0.224, 0.9560000000000001, 0.134, 192.0, 0.0, 0.0, 0.0, 0.0, 0.0, 0.0, 0.0, 0.0, 0.0, 1.718469128078127E9, 0.0, 2024-06-15 11:32:08.078
215.0, 50442.120485558575, 71086.39283018027, -6955.572301813639, -187500.02235174447, 72572.62737424701, -187500.02235174447, -187500.02235174447, -187500.02235174447, -0.224, 0.9560000000000001, 0.134, 192.0, 0.0, 0.0, 0.0, 0.0, 0.0, 0.0, 0.0, 0.0, 0.0, 1.7184691280781367E9, 0.0, 2024-06-15 11:32:08.078
216.0, 49929.84085438739, 70554.04133248822, -4187.554620212868, -187500.02235174447, 72597.21429314784, -187500.02235174447, -187500.02235174447, -187500.02235174447, -0.224, 0.9560000000000001, 0.134, 192.0, 0.0, 0.0, 0.0, 0.0, 0.0, 0.0, 0.0, 0.0, 0.0, 1.7184691280781465E9, 0.0, 2024-06-15 11:32:08.078
217.0, 49878.58830435137, 70504.53221851971, -2250.9994806050636, -187500.02235174447, 72228.7010823132, -187500.02235174447, -187500.02235174447, -187500.02235174447, -0.224, 0.9560000000000001, 0.134, 192.0, 0.0, 0.0, 0.0, 0.0, 0.0, 0.0, 0.0, 0.0, 0.0, 1.718469128078156E9, 0.0, 2024-06-15 11:32:08.078
218.0, 50346.99146115679, 70985.4076487312, -4394.531773869011, -187500.02235174447, 72137.68477889118, -187500.02235174447, -187500.02235174447, -187500.02235174447, -0.224, 0.9560000000000001, 0.134, 192.0, 0.0, 0.0, 0.0, 0.0, 0.0, 0.0, 0.0, 0.0, 0.0, 1.718469128078166E9, 0.0, 2024-06-15 11:32:08.078
219.0, 50505.13005317808, 71148.08364487693, -6888.740585892271, -187500.02235174447, 72514.04345202964, -187500.02235174447, -187500.02235174447, -187500.02235174447, -0.224, 0.9560000000000001, 0.134, 192.0, 0.0, 0.0, 0.0, 0.0, 0.0, 0.0, 0.0, 0.0, 0.0, 1.7184691280781755E9, 0.0, 2024-06-15 11:32:08.078
220.0, 50041.62192840838, 70676.12656070311, -4749.678641519385, -187500.02235174447, 72654.97120082035, -187500.02235174447, -187500.02235174447, -187500.02235174447, -0.224, 0.9560000000000001, 0.134, 192.0, 0.0, 0.0, 0.0, 0.0, 0.0, 0.0, 0.0, 0.0, 0.0, 1.718469128078185E9, 0.0, 2024-06-15 11:32:08.078
221.0, 49854.180199406175, 70491.00941312425, -2229.385343716782, -187500.02235174447, 72308.78738269657, -187500.02235174447, -187500.02235174447, -187500.02235174447, -0.224, 0.9560000000000001, 0.134, 192.0, 0.0, 0.0, 0.0, 0.0, 0.0, 0.0, 0.0, 0.0, 0.0, 1.718469128078195E9, 0.0, 2024-06-15 11:32:08.078
222.0, 50282.10434700303, 70921.70517703357, -3735.781161282201, -187500.02235174447, 72129.01230204252, -187500.02235174447, -187500.02235174447, -187500.02235174447, -0.224, 0.9560000000000001, 0.134, 192.0, 0.0, 0.0, 0.0, 0.0, 0.0, 0.0, 0.0, 0.0, 0.0, 1.718469128078205E9, 0.0, 2024-06-15 11:32:08.078
223.0, 50539.01529777233, 71173.67639227824, -6660.439868025765, -187500.02235174447, 72450.0504076541, -187500.02235174447, -187500.02235174447, -187500.02235174447, -0.226, 0.96, 0.132, 192.0, 248.0, 240.0, 30.0, 0.0, 4.0, 32.0, 0.0, 0.0, 0.0, 1.718469128078215E9, 0.0, 2024-06-15 11:32:08.078
224.0, 50148.284452949105, 70766.98640191393, -5300.403273153695, -187500.02235174447, 72690.44341927093, -187500.02235174447, -187500.02235174447, -187500.02235174447, -0.226, 0.96, 0.132, 192.0, 0.0, 0.0, 0.0, 0.0, 0.0, 0.0, 0.0, 0.0, 0.0, 1.718469128078225E9, 0.0, 2024-06-15 11:32:08.078
225.0, 49844.457190568115, 70463.65087791096, -2351.6717376317665, -187500.02235174447, 72394.81924710504, -187500.02235174447, -187500.02235174447, -187500.02235174447, -0.226, 0.96, 0.132, 192.0, 0.0, 0.0, 0.0, 0.0, 0.0, 0.0, 0.0, 0.0, 0.0, 1.7184691280782347E9, 0.0, 2024-06-15 11:32:08.078
226.0, 50179.6439504199, 70808.53829485635, -3108.3453426772767, -187500.02235174447, 72115.80242106944, -187500.02235174447, -187500.02235174447, -187500.02235174447, -0.226, 0.96, 0.132, 192.0, 0.0, 0.0, 0.0, 0.0, 0.0, 0.0, 0.0, 0.0, 0.0, 1.7184691280782444E9, 0.0, 2024-06-15 11:32:08.078
227.0, 50524.30784992073, 71166.45677881918, -6231.688705884065, -187500.02235174447, 72353.13324369589, -187500.02235174447, -187500.02235174447, -187500.02235174447, -0.226, 0.96, 0.132, 192.0, 0.0, 0.0, 0.0, 0.0, 0.0, 0.0, 0.0, 0.0, 0.0, 1.7184691280782545E9, 0.0, 2024-06-15 11:32:08.078
228.0, 50226.89553819842, 70855.61106867922, -5735.703496420801, -187500.02235174447, 72659.26273575578, -187500.02235174447, -187500.02235174447, -187500.02235174447, -0.226, 0.96, 0.132, 192.0, 0.0, 0.0, 0.0, 0.0, 0.0, 0.0, 0.0, 0.0, 0.0, 1.7184691280782642E9, 0.0, 2024-06-15 11:32:08.078
229.0, 49842.49023705605, 70457.95118307485, -2545.2154928702707, -187500.02235174447, 72444.88715468493, -187500.02235174447, -187500.02235174447, -187500.02235174447, -0.226, 0.96, 0.132, 192.0, 0.0, 0.0, 0.0, 0.0, 0.0, 0.0, 0.0, 0.0, 0.0, 1.718469128078274E9, 0.0, 2024-06-15 11:32:08.078
230.0, 50092.0251121551, 70715.57738966672, -2562.0910599340273, -187500.02235174447, 72119.69162460466, -187500.02235174447, -187500.02235174447, -187500.02235174447, -0.226, 0.96, 0.132, 192.0, 0.0, 0.0, 0.0, 0.0, 0.0, 0.0, 0.0, 0.0, 0.0, 1.7184691280782835E9, 0.0, 2024-06-15 11:32:08.078
231.0, 50511.120320692105, 71142.11572910735, -5693.928086033832, -187500.02235174447, 72285.45216148521, -187500.02235174447, -187500.02235174447, -187500.02235174447, -0.226, 0.96, 0.132, 192.0, 0.0, 0.0, 0.0, 0.0, 0.0, 0.0, 0.0, 0.0, 0.0, 1.7184691280782933E9, 0.0, 2024-06-15 11:32:08.078
232.0, 50319.498815476756, 70946.6944273346, -6097.242962985392, -187500.02235174447, 72645.42700593793, -187500.02235174447, -187500.02235174447, -187500.02235174447, -0.226, 0.96, 0.132, 192.0, 0.0, 0.0, 0.0, 0.0, 0.0, 0.0, 0.0, 0.0, 0.0, 1.718469128078303E9, 0.0, 2024-06-15 11:32:08.078
233.0, 49844.90422545722, 70467.54008144619, -2834.402362633033, -187500.02235174447, 72506.28739670366, -187500.02235174447, -187500.02235174447, -187500.02235174447, -0.232, 0.9540000000000001, 0.132, 192.0, 248.0, 192.0, 29.0, 208.0, 4.0, 32.0, 0.0, 0.0, 0.0, 1.7184691280783129E9, 0.0, 2024-06-15 11:32:08.078
234.0, 50007.17789020275, 70638.39681606255, -2086.9153245586544, -187500.02235174447, 72148.01128482954, -187500.02235174447, -187500.02235174447, -187500.02235174447, -0.232, 0.9540000000000001, 0.132, 192.0, 0.0, 0.0, 0.0, 0.0, 0.0, 0.0, 0.0, 0.0, 0.0, 1.718469128078323E9, 0.0, 2024-06-15 11:32:08.078
235.0, 50459.800715422716, 71097.032260541, -4987.858830435137, -187500.02235174447, 72214.55242807299, -187500.02235174447, -187500.02235174447, -187500.02235174447, -0.232, 0.9540000000000001, 0.132, 192.0, 0.0, 0.0, 0.0, 0.0, 0.0, 0.0, 0.0, 0.0, 0.0, 1.7184691280783324E9, 0.0, 2024-06-15 11:32:08.078
236.0, 50399.339246671116, 71034.82735572188, -6271.497162758967, -187500.02235174447, 72604.00922346226, -187500.02235174447, -187500.02235174447, -187500.02235174447, -0.232, 0.9540000000000001, 0.132, 192.0, 0.0, 0.0, 0.0, 0.0, 0.0, 0.0, 0.0, 0.0, 0.0, 1.7184691280783424E9, 0.0, 2024-06-15 11:32:08.078
237.0, 49897.386121438285, 70522.59242803961, -3229.983536003058, -187500.02235174447, 72571.7333044688, -187500.02235174447, -187500.02235174447, -187500.02235174447, -0.232, 0.9540000000000001, 0.132, 192.0, 0.0, 0.0, 0.0, 0.0, 0.0, 0.0, 0.0, 0.0, 0.0, 1.718469128078352E9, 0.0, 2024-06-15 11:32:08.078
238.0, 49929.460874731645, 70556.88000403404, -1731.142608063532, -187500.02235174447, 72198.32506159843, -187500.02235174447, -187500.02235174447, -187500.02235174447, -0.232, 0.9540000000000001, 0.132, 192.0, 0.0, 0.0, 0.0, 0.0, 0.0, 0.0, 0.0, 0.0, 0.0, 1.7184691280783615E9, 0.0, 2024-06-15 11:32:08.078
239.0, 50398.40047340399, 71043.18690814816, -4207.760597200465, -187500.02235174447, 72163.07636059241, -187500.02235174447, -187500.02235174447, -187500.02235174447, -0.232, 0.9540000000000001, 0.132, 192.0, 0.0, 0.0, 0.0, 0.0, 0.0, 0.0, 0.0, 0.0, 0.0, 1.7184691280783713E9, 0.0, 2024-06-15 11:32:08.078
240.0, 50484.052358156725, 71132.77269992503, -6277.800354695363, -187500.02235174447, 72558.2775543067, -187500.02235174447, -187500.02235174447, -187500.02235174447, -0.232, 0.9540000000000001, 0.132, 192.0, 0.0, 0.0, 0.0, 0.0, 0.0, 0.0, 0.0, 0.0, 0.0, 1.7184691280783813E9, 0.0, 2024-06-15 11:32:08.078
241.0, 49979.14880265579, 70602.9693011009, -3689.0660153706094, -187500.02235174447, 72626.5397818732, -187500.02235174447, -187500.02235174447, -187500.02235174447, -0.232, 0.9540000000000001, 0.132, 192.0, 0.0, 0.0, 0.0, 0.0, 0.0, 0.0, 0.0, 0.0, 0.0, 1.7184691285575275E9, 0.0, 2024-06-15 11:32:08.557
242.0, 49873.64856882675, 70489.2883288012, -1518.5775182935618, -187500.02235174447, 72257.06544602697, -187500.02235174447, -187500.02235174447, -187500.02235174447, -0.232, 0.9540000000000001, 0.132, 192.0, 0.0, 0.0, 0.0, 0.0, 0.0, 0.0, 0.0, 0.0, 0.0, 1.7184691285577047E9, 0.0, 2024-06-15 11:32:08.557
243.0, 50322.47159748931, 70948.30375293539, -3425.360134286897, -187500.02235174447, 72130.93455206568, -187500.02235174447, -187500.02235174447, -187500.02235174447, -0.232, 0.9540000000000001, 0.132, 192.0, 0.0, 0.0, 0.0, 0.0, 0.0, 0.0, 0.0, 0.0, 0.0, 1.7184691285577424E9, 0.0, 2024-06-15 11:32:08.557
244.0, 50514.33897189367, 71146.07198787594, -6045.856302482642, -187500.02235174447, 72491.44583838533, -187500.02235174447, -187500.02235174447, -187500.02235174447, -0.234, 0.9540000000000001, 0.13, 192.0, 248.0, 176.0, 29.0, 208.0, 4.0, 16.0, 0.0, 0.0, 0.0, 1.7184691285577605E9, 0.0, 2024-06-15 11:32:08.557
245.0, 50068.68989094376, 70693.09153474469, -4107.155395407128, -187500.02235174447, 72671.19856729491, -187500.02235174447, -187500.02235174447, -187500.02235174447, -0.234, 0.9540000000000001, 0.13, 192.0, 0.0, 0.0, 0.0, 0.0, 0.0, 0.0, 0.0, 0.0, 0.0, 1.7184691285577776E9, 0.0, 2024-06-15 11:32:08.557
246.0, 49834.68947824115, 70462.95797383285, -1371.6595019888284, -187500.02235174447, 72334.06720567551, -187500.02235174447, -187500.02235174447, -187500.02235174447, -0.234, 0.9540000000000001, 0.13, 192.0, 0.0, 0.0, 0.0, 0.0, 0.0, 0.0, 0.0, 0.0, 0.0, 1.7184691285577939E9, 0.0, 2024-06-15 11:32:08.557
247.0, 50251.37069837698, 70897.16296162164, -2612.226022747281, -187500.02235174447, 72127.80530784193, -187500.02235174447, -187500.02235174447, -187500.02235174447, -0.234, 0.9540000000000001, 0.13, 192.0, 0.0, 0.0, 0.0, 0.0, 0.0, 0.0, 0.0, 0.0, 0.0, 1.718469128557809E9, 0.0, 2024-06-15 11:32:08.557
248.0, 50554.6838706355, 71198.15155245681, -5617.708637441235, -187500.02235174447, 72433.64422722391, -187500.02235174447, -187500.02235174447, -187500.02235174447, -0.234, 0.9540000000000001, 0.13, 192.0, 0.0, 0.0, 0.0, 0.0, 0.0, 0.0, 0.0, 0.0, 0.0, 1.7184691285578413E9, 0.0, 2024-06-15 11:32:08.557
249.0, 50186.21536328976, 70816.7637368159, -4498.310923375002, -187500.02235174447, 72690.80104718222, -187500.02235174447, -187500.02235174447, -187500.02235174447, -0.234, 0.9540000000000001, 0.13, 192.0, 0.0, 0.0, 0.0, 0.0, 0.0, 0.0, 0.0, 0.0, 0.0, 1.7184691285578735E9, 0.0, 2024-06-15 11:32:08.557
250.0, 49839.3162893434, 70471.42928498141, -1399.1744994133114, -187500.02235174447, 72414.37702350343, -187500.02235174447, -187500.02235174447, -187500.02235174447, -0.234, 0.9540000000000001, 0.13, 192.0, 0.0, 0.0, 0.0, 0.0, 0.0, 0.0, 0.0, 0.0, 0.0, 1.718469128557906E9, 0.0, 2024-06-15 11:32:08.557
251.0, 50169.20568575927, 70805.38669888815, -1914.42691259705, -187500.02235174447, 72127.09005201937, -187500.02235174447, -187500.02235174447, -187500.02235174447, -0.234, 0.9540000000000001, 0.13, 192.0, 0.0, 0.0, 0.0, 0.0, 0.0, 0.0, 0.0, 0.0, 0.0, 1.7184691285579228E9, 0.0, 2024-06-15 11:32:08.557
252.0, 50535.640184359574, 71168.08845616442, -5057.708031857972, -187500.02235174447, 72348.70759829374, -187500.02235174447, -187500.02235174447, -187500.02235174447, -0.234, 0.9540000000000001, 0.13, 192.0, 0.0, 0.0, 0.0, 0.0, 0.0, 0.0, 0.0, 0.0, 0.0, 1.7184691285579388E9, 0.0, 2024-06-15 11:32:08.557
253.0, 50258.07622171357, 70882.54492074787, -4824.489930211298, -187500.02235174447, 72658.70394214439, -187500.02235174447, -187500.02235174447, -187500.02235174447, -0.234, 0.9540000000000001, 0.13, 192.0, 0.0, 0.0, 0.0, 0.0, 0.0, 0.0, 0.0, 0.0, 0.0, 1.7184691285579553E9, 0.0, 2024-06-15 11:32:08.557
254.0, 49842.847864967334, 70457.75001737475, -1578.4354899448742, -187500.02235174447, 72471.41867535337, -187500.02235174447, -187500.02235174447, -187500.02235174447, -0.232, 0.9540000000000001, 0.128, 192.0, 248.0, 192.0, 29.0, 208.0, 4.0, 0.0, 0.0, 0.0, 0.0, 1.7184691285579672E9, 0.0, 2024-06-15 11:32:08.557
255.0, 50083.86672542891, 70710.52589541982, -1351.8335046569712, -187500.02235174447, 72142.91508709373, -187500.02235174447, -187500.02235174447, -187500.02235174447, -0.232, 0.9540000000000001, 0.128, 192.0, 0.0, 0.0, 0.0, 0.0, 0.0, 0.0, 0.0, 0.0, 0.0, 1.718469128557978E9, 0.0, 2024-06-15 11:32:08.557
0.0, 50513.221384670906, 71146.40726404278, -4416.838814835407, -187500.02235174447, 72273.65044041282, -187500.02235174447, -187500.02235174447, -187500.02235174447, -0.232, 0.9540000000000001, 0.128, 192.0, 0.0, 0.0, 0.0, 0.0, 0.0, 0.0, 0.0, 0.0, 0.0, 1.7184691285579898E9, 0.0, 2024-06-15 11:32:08.557
1.0, 50341.40352504296, 70971.79543635792, -5084.731290904438, -187500.02235174447, 72628.61849410755, -187500.02235174447, -187500.02235174447, -187500.02235174447, -0.232, 0.9540000000000001, 0.128, 192.0, 0.0, 0.0, 0.0, 0.0, 0.0, 0.0, 0.0, 0.0, 0.0, 1.7184691285580058E9, 0.0, 2024-06-15 11:32:08.558
2.0, 49845.574777790884, 70465.79664537866, -1844.5777111742154, -187500.02235174447, 72509.72956534977, -187500.02235174447, -187500.02235174447, -187500.02235174447, -0.232, 0.9540000000000001, 0.128, 192.0, 0.0, 0.0, 0.0, 0.0, 0.0, 0.0, 0.0, 0.0, 0.0, 1.7184691285580223E9, 0.0, 2024-06-15 11:32:08.558
3.0, 49987.910686482275, 70605.42799299097, -877.0601006817939, -187500.02235174447, 72156.8849273783, -187500.02235174447, -187500.02235174447, -187500.02235174447, -0.232, 0.9540000000000001, 0.128, 192.0, 0.0, 0.0, 0.0, 0.0, 0.0, 0.0, 0.0, 0.0, 0.0, 1.7184691285580382E9, 0.0, 2024-06-15 11:32:08.558
4.0, 50467.065032370694, 71094.81943783992, -3696.375035807495, -187500.02235174447, 72202.77305874504, -187500.02235174447, -187500.02235174447, -187500.02235174447, -0.232, 0.9540000000000001, 0.128, 192.0, 0.0, 0.0, 0.0, 0.0, 0.0, 0.0, 0.0, 0.0, 0.0, 1.718469128558055E9, 0.0, 2024-06-15 11:32:08.558
5.0, 50444.95915710439, 71072.28887942898, -5262.315900601852, -187500.02235174447, 72599.42711584891, -187500.02235174447, -187500.02235174447, -187500.02235174447, -0.232, 0.9540000000000001, 0.128, 192.0, 0.0, 0.0, 0.0, 0.0, 0.0, 0.0, 0.0, 0.0, 0.0, 1.718469128558071E9, 0.0, 2024-06-15 11:32:08.558
6.0, 49935.764066668045, 70559.27164069077, -2361.886484847842, -187500.02235174447, 72596.7896100032, -187500.02235174447, -187500.02235174447, -187500.02235174447, -0.232, 0.9540000000000001, 0.128, 192.0, 0.0, 0.0, 0.0, 0.0, 0.0, 0.0, 0.0, 0.0, 0.0, 1.7184691285580864E9, 0.0, 2024-06-15 11:32:08.558
7.0, 49936.16639806824, 70568.2570419618, -687.6514181675218, -187500.02235174447, 72230.95860850318, -187500.02235174447, -187500.02235174447, -187500.02235174447, -0.232, 0.9540000000000001, 0.128, 192.0, 0.0, 0.0, 0.0, 0.0, 0.0, 0.0, 0.0, 0.0, 0.0, 1.7184691285581183E9, 0.0, 2024-06-15 11:32:08.558
8.0, 50407.74350258631, 71037.77778598998, -3046.7439349584506, -187500.02235174447, 72175.70509620965, -187500.02235174447, -187500.02235174447, -187500.02235174447, -0.232, 0.9520000000000001, 0.134, 192.0, 248.0, 192.0, 29.0, 192.0, 4.0, 48.0, 0.0, 0.0, 0.0, 1.7184691285581348E9, 0.0, 2024-06-15 11:32:08.558
9.0, 50522.40795164203, 71150.36352281136, -5355.075640091377, -187500.02235174447, 72563.66432472042, -187500.02235174447, -187500.02235174447, -187500.02235174447, -0.232, 0.9520000000000001, 0.134, 192.0, 0.0, 0.0, 0.0, 0.0, 0.0, 0.0, 0.0, 0.0, 0.0, 1.718469128558172E9, 0.0, 2024-06-15 11:32:08.558
10.0, 50026.57920438996, 70645.83994696617, -3009.3494664847217, -187500.02235174447, 72654.12183453105, -187500.02235174447, -187500.02235174447, -187500.02235174447, -0.232, 0.9520000000000001, 0.134, 192.0, 0.0, 0.0, 0.0, 0.0, 0.0, 0.0, 0.0, 0.0, 0.0, 1.7184691285582032E9, 0.0, 2024-06-15 11:32:08.558
