%OpenBCI Raw EXG Data
%Number of channels = 8
%Sample Rate = 250 Hz
%Board = OpenBCI_GUI$BoardCytonSerial
Sample Index, EXG Channel 0, EXG Channel 1, EXG Channel 2, EXG Channel 3, EXG Channel 4, EXG Channel 5, EXG Channel 6, EXG Channel 7, Accel Channel 0, Accel Channel 1, Accel Channel 2, Other, Other, Other, Other, Other, Other, Other, Analog Channel 0, Analog Channel 1, Analog Channel 2, Timestamp, Other, Timestamp (Formatted)
173.0, 38358.32039813047, -122837.45382278608, 74334.77185187004, -187500.02235174447, -94935.2571291038, -187500.02235174447, -187500.02235174447, 10126.994267343793, 0.0, 0.0, 0.0, 192.0, 0.0, 0.0, 0.0, 0.0, 0.0, 0.0, 0.0, 0.0, 0.0, 1.718470499889632E9, 0.0, 2024-06-15 11:54:59.889
174.0, 38347.300988114, -122805.22260728152, 75026.46893578398, -187500.02235174447, -94989.99655127485, -187500.02235174447, -187500.02235174447, 10377.1996947765, 0.0, 0.0, 0.0, 192.0, 0.0, 0.0, 0.0, 0.0, 0.0, 0.0, 0.0, 0.0, 0.0, 1.7184704998896508E9, 0.0, 2024-06-15 11:54:59.889
175.0, 38354.9005812288, -121370.66529639547, 77371.23398437905, -187500.02235174447, -92484.63421876839, -187500.02235174447, -187500.02235174447, 11018.158318776885, 0.0, 0.0, 0.0, 192.0, 0.0, 0.0, 0.0, 0.0, 0.0, 0.0, 0.0, 0.0, 0.0, 1.7184704998896625E9, 0.0, 2024-06-15 11:54:59.889
176.0, 38334.78401121903, -121262.32639102059, 76964.164014359, -187500.02235174447, -92162.03149104494, -187500.02235174447, -187500.02235174447, 10886.618302657402, 0.0, 0.0, 0.0, 192.0, 0.0, 0.0, 0.0, 0.0, 0.0, 0.0, 0.0, 0.0, 0.0, 1.7184704998896732E9, 0.0, 2024-06-15 11:54:59.889
177.0, 38346.11634565787, -122614.36106137765, 74621.27651229818, -187500.02235174447, -94481.51671666106, -187500.02235174447, -187500.02235174447, 10310.055054432756, -0.14, 0.962, -0.114, 192.0, 251.0, 160.0, 30.0, 16.0, 252.0, 112.0, 0.0, 0.0, 0.0, 1.718470499889684E9, 0.0, 2024-06-15 11:54:59.889
178.0, 38350.743156760116, -123044.72154912015, 74621.857657654, -187500.02235174447, -95312.1522441092, -187500.02235174447, -187500.02235174447, 10124.781444642716, -0.14, 0.962, -0.114, 192.0, 0.0, 0.0, 0.0, 0.0, 0.0, 0.0, 0.0, 0.0, 0.0, 1.7184704998896952E9, 0.0, 2024-06-15 11:54:59.889
179.0, 38345.155220646295, -121578.78238901883, 77098.16272236856, -187500.02235174447, -92814.09893203962, -187500.02235174447, -187500.02235174447, 11039.884214387443, -0.14, 0.962, -0.114, 192.0, 0.0, 0.0, 0.0, 0.0, 0.0, 0.0, 0.0, 0.0, 0.0, 1.7184704998897057E9, 0.0, 2024-06-15 11:54:59.889
180.0, 38339.701394999196, -121170.84070096503, 77260.12346269173, -187500.02235174447, -91971.37111084118, -187500.02235174447, -187500.02235174447, 10861.137313978352, -0.14, 0.962, -0.114, 192.0, 0.0, 0.0, 0.0, 0.0, 0.0, 0.0, 0.0, 0.0, 0.0, 1.718470499889716E9, 0.0, 2024-06-15 11:54:59.889
181.0, 38344.507020057084, -122337.8699824655, 74995.51176971338, -187500.02235174447, -93958.08356500669, -187500.02235174447, -187500.02235174447, 10521.27903953541, -0.14, 0.962, -0.114, 192.0, 0.0, 0.0, 0.0, 0.0, 0.0, 0.0, 0.0, 0.0, 0.0, 1.7184704998897264E9, 0.0, 2024-06-15 11:54:59.889
182.0, 38355.66054054029, -123241.50630730466, 74280.50181633256, -187500.02235174447, -95543.82807538845, -187500.02235174447, -187500.02235174447, 9887.294159805078, -0.14, 0.962, -0.114, 192.0, 0.0, 0.0, 0.0, 0.0, 0.0, 0.0, 0.0, 0.0, 0.0, 1.718470499889737E9, 0.0, 2024-06-15 11:54:59.889
183.0, 38337.734441487126, -121866.62815411427, 76715.0091189157, -187500.02235174447, -93259.65860601171, -187500.02235174447, -187500.02235174447, 10963.575358817025, -0.14, 0.962, -0.114, 192.0, 0.0, 0.0, 0.0, 0.0, 0.0, 0.0, 0.0, 0.0, 0.0, 1.7184704998897529E9, 0.0, 2024-06-15 11:54:59.889
184.0, 38344.68583401273, -121157.42965429183, 77463.61374421284, -187500.02235174447, -91910.3955519671, -187500.02235174447, -187500.02235174447, 10809.504784286593, -0.14, 0.962, -0.114, 192.0, 0.0, 0.0, 0.0, 0.0, 0.0, 0.0, 0.0, 0.0, 0.0, 1.7184704998897638E9, 0.0, 2024-06-15 11:54:59.889
185.0, 38342.02597642255, -122101.81320927301, 75411.34362355991, -187500.02235174447, -93487.33347503346, -187500.02235174447, -187500.02235174447, 10649.421590497685, -0.14, 0.962, -0.114, 192.0, 0.0, 0.0, 0.0, 0.0, 0.0, 0.0, 0.0, 0.0, 0.0, 1.7184704998897748E9, 0.0, 2024-06-15 11:54:59.889
186.0, 38371.88790701484, -123273.91633676486, 74131.9968261715, -187500.02235174447, -95555.45098250521, -187500.02235174447, -187500.02235174447, 9809.75595828962, -0.14, 0.962, -0.114, 192.0, 0.0, 0.0, 0.0, 0.0, 0.0, 0.0, 0.0, 0.0, 0.0, 1.7184704998897855E9, 0.0, 2024-06-15 11:54:59.889
187.0, 38348.083299169935, -122159.36895124543, 76279.48537820404, -187500.02235174447, -93732.15213205245, -187500.02235174447, -187500.02235174447, 10846.76514229359, -0.14, 0.962, -0.114, 192.0, 0.0, 0.0, 0.0, 0.0, 0.0, 0.0, 0.0, 0.0, 0.0, 1.7184704998897955E9, 0.0, 2024-06-15 11:54:59.889
188.0, 38340.796630477504, -121189.59381456302, 77570.6115449204, -187500.02235174447, -91943.14085759412, -187500.02235174447, -187500.02235174447, 10792.852734667389, -0.138, 0.968, -0.11, 192.0, 251.0, 176.0, 30.0, 64.0, 252.0, 144.0, 0.0, 0.0, 0.0, 1.7184704998898065E9, 0.0, 2024-06-15 11:54:59.889
189.0, 38333.24174085161, -121842.66708405818, 75864.8605185581, -187500.02235174447, -93014.57172805927, -187500.02235174447, -187500.02235174447, 10756.687612138703, -0.138, 0.968, -0.11, 192.0, 0.0, 0.0, 0.0, 0.0, 0.0, 0.0, 0.0, 0.0, 0.0, 1.7184704998898168E9, 0.0, 2024-06-15 11:54:59.889
190.0, 38364.13185168885, -123229.27990308762, 74086.10869480476, -187500.02235174447, -95431.10822810033, -187500.02235174447, -187500.02235174447, 9803.095138441937, -0.138, 0.968, -0.11, 192.0, 0.0, 0.0, 0.0, 0.0, 0.0, 0.0, 0.0, 0.0, 0.0, 1.7184704998898277E9, 0.0, 2024-06-15 11:54:59.889
191.0, 38339.18730487672, -122456.7589112233, 75802.32033757215, -187500.02235174447, -94216.15680648766, -187500.02235174447, -187500.02235174447, 10659.971613880589, -0.138, 0.968, -0.11, 192.0, 0.0, 0.0, 0.0, 0.0, 0.0, 0.0, 0.0, 0.0, 0.0, 1.7184704998898377E9, 0.0, 2024-06-15 11:54:59.889
192.0, 38343.38943283432, -121247.14955653544, 77594.55026323203, -187500.02235174447, -92042.56141693133, -187500.02235174447, -187500.02235174447, 10826.156833905798, -0.138, 0.968, -0.11, 192.0, 0.0, 0.0, 0.0, 0.0, 0.0, 0.0, 0.0, 0.0, 0.0, 1.7184704998898485E9, 0.0, 2024-06-15 11:54:59.889
193.0, 38329.08431638293, -121614.85810456969, 76313.68354722066, -187500.02235174447, -92595.09653986651, -187500.02235174447, -187500.02235174447, 10806.844926696413, -0.138, 0.968, -0.11, 192.0, 0.0, 0.0, 0.0, 0.0, 0.0, 0.0, 0.0, 0.0, 0.0, 1.7184704998898587E9, 0.0, 2024-06-15 11:54:59.889
194.0, 38367.21639242368, -123131.13339318435, 74161.00939047449, -187500.02235174447, -95189.75409147193, -187500.02235174447, -187500.02235174447, 9859.108610046937, -0.138, 0.968, -0.11, 192.0, 0.0, 0.0, 0.0, 0.0, 0.0, 0.0, 0.0, 0.0, 0.0, 1.7184704998898687E9, 0.0, 2024-06-15 11:54:59.889
195.0, 38344.73053750164, -122789.46462744054, 75309.3749653548, -187500.02235174447, -94715.53948110814, -187500.02235174447, -187500.02235174447, 10382.966444845968, -0.138, 0.968, -0.11, 192.0, 0.0, 0.0, 0.0, 0.0, 0.0, 0.0, 0.0, 0.0, 0.0, 1.7184704998898823E9, 0.0, 2024-06-15 11:54:59.889
196.0, 38350.58669454893, -121401.64481421052, 77491.39696257078, -187500.02235174447, -92276.58418137839, -187500.02235174447, -187500.02235174447, 10833.66702004278, -0.138, 0.968, -0.11, 192.0, 0.0, 0.0, 0.0, 0.0, 0.0, 0.0, 0.0, 0.0, 0.0, 1.7184704998898923E9, 0.0, 2024-06-15 11:54:59.889
197.0, 38327.22912159313, -121470.62229759959, 76713.86917994848, -187500.02235174447, -92295.87373684332, -187500.02235174447, -187500.02235174447, 10771.283301268018, -0.138, 0.968, -0.11, 192.0, 0.0, 0.0, 0.0, 0.0, 0.0, 0.0, 0.0, 0.0, 0.0, 1.7184704998899033E9, 0.0, 2024-06-15 11:54:59.889
198.0, 38350.519639315564, -122904.6655183632, 74397.53555030056, -187500.02235174447, -94770.74828991274, -187500.02235174447, -187500.02235174447, 10044.113998903513, -0.14200000000000002, 0.97, -0.11, 192.0, 251.0, 144.0, 30.0, 80.0, 252.0, 144.0, 0.0, 0.0, 0.0, 1.7184704998899136E9, 0.0, 2024-06-15 11:54:59.889
199.0, 38337.466220553666, -123023.15211572078, 74867.5703844512, -187500.02235174447, -95076.18487789451, -187500.02235174447, -187500.02235174447, 10159.493703781809, -0.14200000000000002, 0.97, -0.11, 192.0, 0.0, 0.0, 0.0, 0.0, 0.0, 0.0, 0.0, 0.0, 0.0, 1.718470499889924E9, 0.0, 2024-06-15 11:54:59.889
200.0, 38338.4496973097, -121579.67645879704, 77269.37708489622, -187500.02235174447, -92562.53004819514, -187500.02235174447, -187500.02235174447, 10867.596968125936, -0.14200000000000002, 0.97, -0.11, 192.0, 0.0, 0.0, 0.0, 0.0, 0.0, 0.0, 0.0, 0.0, 0.0, 1.7184704998899348E9, 0.0, 2024-06-15 11:54:59.889
201.0, 38333.822886207454, -121402.51653224428, 77027.59826512316, -187500.02235174447, -92099.51366180344, -187500.02235174447, -187500.02235174447, 10692.314588107418, -0.14200000000000002, 0.97, -0.11, 192.0, 0.0, 0.0, 0.0, 0.0, 0.0, 0.0, 0.0, 0.0, 0.0, 1.7184704998899536E9, 0.0, 2024-06-15 11:54:59.889
202.0, 38343.25532236759, -122678.51056796439, 74714.79621109918, -187500.02235174447, -94308.514214577, -187500.02235174447, -187500.02235174447, 10222.547974890229, -0.14200000000000002, 0.97, -0.11, 192.0, 0.0, 0.0, 0.0, 0.0, 0.0, 0.0, 0.0, 0.0, 0.0, 1.7184704998899655E9, 0.0, 2024-06-15 11:54:59.889
203.0, 38345.26697936857, -123265.0426942161, 74483.34389726448, -187500.02235174447, -95388.10347176832, -187500.02235174447, -187500.02235174447, 9900.928723922816, -0.14200000000000002, 0.97, -0.11, 192.0, 0.0, 0.0, 0.0, 0.0, 0.0, 0.0, 0.0, 0.0, 0.0, 1.718470499889976E9, 0.0, 2024-06-15 11:54:59.889
204.0, 38330.045441394504, -121802.99273765001, 76973.37293307458, -187500.02235174447, -92915.77701756681, -187500.02235174447, -187500.02235174447, 10879.555151409526, -0.14200000000000002, 0.97, -0.11, 192.0, 0.0, 0.0, 0.0, 0.0, 0.0, 0.0, 0.0, 0.0, 0.0, 1.7184704998899872E9, 0.0, 2024-06-15 11:54:59.889
205.0, 38327.00560414858, -121271.71412369183, 77332.58781821583, -187500.02235174447, -91874.7892230498, -187500.02235174447, -187500.02235174447, 10727.920917024723, -0.14200000000000002, 0.97, -0.11, 192.0, 0.0, 0.0, 0.0, 0.0, 0.0, 0.0, 0.0, 0.0, 0.0, 1.718470499889998E9, 0.0, 2024-06-15 11:54:59.889
206.0, 38333.10763038488, -122349.33642737109, 75131.72330042403, -187500.02235174447, -93720.35041098004, -187500.02235174447, -187500.02235174447, 10482.051728016344, -0.14200000000000002, 0.97, -0.11, 192.0, 0.0, 0.0, 0.0, 0.0, 0.0, 0.0, 0.0, 0.0, 0.0, 1.7184704998900082E9, 0.0, 2024-06-15 11:54:59.890
207.0, 38356.57696206295, -123294.61405213048, 74254.39497880876, -187500.02235174447, -95421.27346054, -187500.02235174447, -187500.02235174447, 9850.257319242635, -0.14200000000000002, 0.97, -0.11, 192.0, 0.0, 0.0, 0.0, 0.0, 0.0, 0.0, 0.0, 0.0, 0.0, 1.718470499890019E9, 0.0, 2024-06-15 11:54:59.890
208.0, 38340.50605779959, -122014.90962683078, 76594.75673374615, -187500.02235174447, -93272.60026605133, -187500.02235174447, -187500.02235174447, 10901.63867493137, -0.14, 0.966, -0.108, 192.0, 251.0, 160.0, 30.0, 48.0, 252.0, 160.0, 0.0, 0.0, 0.0, 1.7184704998900294E9, 0.0, 2024-06-15 11:54:59.890
209.0, 38344.372909590355, -121241.5616204216, 77510.97709071364, -187500.02235174447, -91789.36085574162, -187500.02235174447, -187500.02235174447, 10749.020963790532, -0.14, 0.966, -0.108, 192.0, 0.0, 0.0, 0.0, 0.0, 0.0, 0.0, 0.0, 0.0, 0.0, 1.7184704998900397E9, 0.0, 2024-06-15 11:54:59.890
210.0, 38334.89576994131, -122096.22527315919, 75555.22180261872, -187500.02235174447, -93215.75977990149, -187500.02235174447, -187500.02235174447, 10647.499340474527, -0.14, 0.966, -0.108, 192.0, 0.0, 0.0, 0.0, 0.0, 0.0, 0.0, 0.0, 0.0, 0.0, 1.71847049989005E9, 0.0, 2024-06-15 11:54:59.890
211.0, 38362.611933065884, -123342.15621258691, 74101.26317754545, -187500.02235174447, -95413.4727017251, -187500.02235174447, -187500.02235174447, 9780.74339398663, -0.14, 0.966, -0.108, 192.0, 0.0, 0.0, 0.0, 0.0, 0.0, 0.0, 0.0, 0.0, 0.0, 1.7184704998900607E9, 0.0, 2024-06-15 11:54:59.890
212.0, 38341.936569444726, -122333.26552310772, 76133.30496946634, -187500.02235174447, -93759.22009458781, -187500.02235174447, -187500.02235174447, 10774.569007702949, -0.14, 0.966, -0.108, 192.0, 0.0, 0.0, 0.0, 0.0, 0.0, 0.0, 0.0, 0.0, 0.0, 1.7184704998900867E9, 0.0, 2024-06-15 11:54:59.890
213.0, 38353.335959116936, -121263.93571662137, 77611.49288552915, -187500.02235174447, -91802.7719024148, -187500.02235174447, -187500.02235174447, 10801.9498946607, -0.14, 0.966, -0.108, 192.0, 0.0, 0.0, 0.0, 0.0, 0.0, 0.0, 0.0, 0.0, 0.0, 1.7184704998900964E9, 0.0, 2024-06-15 11:54:59.890
214.0, 38328.41376404926, -121806.43490629613, 76034.24203804041, -187500.02235174447, -92692.17016603591, -187500.02235174447, -187500.02235174447, 10819.384255335839, -0.14, 0.966, -0.108, 192.0, 0.0, 0.0, 0.0, 0.0, 0.0, 0.0, 0.0, 0.0, 0.0, 1.7184704998901062E9, 0.0, 2024-06-15 11:54:59.890
215.0, 38354.00651145059, -123220.67448147232, 74121.69267197761, -187500.02235174447, -95171.5150679964, -187500.02235174447, -187500.02235174447, 9893.016206385637, -0.14, 0.966, -0.108, 192.0, 0.0, 0.0, 0.0, 0.0, 0.0, 0.0, 0.0, 0.0, 0.0, 1.7184704998901165E9, 0.0, 2024-06-15 11:54:59.890
216.0, 38332.81705770696, -122588.74596223189, 75661.75021669272, -187500.02235174447, -94175.11900366771, -187500.02235174447, -187500.02235174447, 10663.547892993438, -0.14, 0.966, -0.108, 192.0, 0.0, 0.0, 0.0, 0.0, 0.0, 0.0, 0.0, 0.0, 0.0, 1.718470499890128E9, 0.0, 2024-06-15 11:54:59.890
217.0, 38345.66931076876, -121329.58279008661, 77589.38701026286, -187500.02235174447, -91898.10209251668, -187500.02235174447, -187500.02235174447, 10899.917590608311, -0.14, 0.966, -0.108, 192.0, 0.0, 0.0, 0.0, 0.0, 0.0, 0.0, 0.0, 0.0, 0.0, 1.718470499890138E9, 0.0, 2024-06-15 11:54:59.890
218.0, 38329.73251697213, -121629.90082858811, 76447.77166220805, -187500.02235174447, -92311.49760621758, -187500.02235174447, -187500.02235174447, 10869.608625126913, -0.138, 0.964, -0.106, 192.0, 251.0, 176.0, 30.0, 32.0, 252.0, 176.0, 0.0, 0.0, 0.0, 1.7184704998901477E9, 0.0, 2024-06-15 11:54:59.890
219.0, 38353.470069583665, -123095.81763694498, 74246.10248161585, -187500.02235174447, -94869.40888993847, -187500.02235174447, -187500.02235174447, 10033.876899942983, -0.138, 0.964, -0.106, 192.0, 0.0, 0.0, 0.0, 0.0, 0.0, 0.0, 0.0, 0.0, 0.0, 1.718470499890165E9, 0.0, 2024-06-15 11:54:59.890
220.0, 38335.67808099724, -122862.93481146514, 75203.47240012555, -187500.02235174447, -94593.0295697486, -187500.02235174447, -187500.02235174447, 10492.065309532323, -0.138, 0.964, -0.106, 192.0, 0.0, 0.0, 0.0, 0.0, 0.0, 0.0, 0.0, 0.0, 0.0, 1.718470499890175E9, 0.0, 2024-06-15 11:54:59.890
221.0, 38346.11634565787, -121448.47171884439, 77465.67010470273, -187500.02235174447, -92088.15897562016, -187500.02235174447, -187500.02235174447, 11029.89298461592, -0.138, 0.964, -0.106, 192.0, 0.0, 0.0, 0.0, 0.0, 0.0, 0.0, 0.0, 0.0, 0.0, 1.7184704998901849E9, 0.0, 2024-06-15 11:54:59.890
222.0, 38340.1484298883, -121466.15194870853, 76834.27802732922, -187500.02235174447, -91982.36816911318, -187500.02235174447, -187500.02235174447, 10921.956410641244, -0.138, 0.964, -0.106, 192.0, 0.0, 0.0, 0.0, 0.0, 0.0, 0.0, 0.0, 0.0, 0.0, 1.718470499890195E9, 0.0, 2024-06-15 11:54:59.890
223.0, 38354.27473238406, -122868.7015615346, 74493.75981018065, -187500.02235174447, -94427.82782647942, -187500.02235174447, -187500.02235174447, 10278.069708117213, -0.138, 0.964, -0.106, 192.0, 0.0, 0.0, 0.0, 0.0, 0.0, 0.0, 0.0, 0.0, 0.0, 1.718470499890205E9, 0.0, 2024-06-15 11:54:59.890
224.0, 38335.65572925279, -123075.63401170183, 74780.68915375342, -187500.02235174447, -94919.85677717409, -187500.02235174447, -187500.02235174447, 10332.607964588162, -0.138, 0.964, -0.106, 192.0, 0.0, 0.0, 0.0, 0.0, 0.0, 0.0, 0.0, 0.0, 0.0, 1.7184704998902144E9, 0.0, 2024-06-15 11:54:59.890
225.0, 38341.13190664434, -121622.52475291786, 77221.83492443978, -187500.02235174447, -92366.37113885536, -187500.02235174447, -187500.02235174447, 11136.510805667736, -0.138, 0.964, -0.106, 192.0, 0.0, 0.0, 0.0, 0.0, 0.0, 0.0, 0.0, 0.0, 0.0, 1.718470499890224E9, 0.0, 2024-06-15 11:54:59.890
226.0, 38335.074583896945, -121316.57407481362, 77168.74953135844, -187500.02235174447, -91697.56224126366, -187500.02235174447, -187500.02235174447, 10984.563646860559, -0.138, 0.964, -0.106, 192.0, 0.0, 0.0, 0.0, 0.0, 0.0, 0.0, 0.0, 0.0, 0.0, 1.7184704998902335E9, 0.0, 2024-06-15 11:54:59.890
227.0, 38345.95988344668, -122570.30577305624, 74839.02720678177, -187500.02235174447, -93873.68337794345, -187500.02235174447, -187500.02235174447, 10576.085516939822, -0.138, 0.964, -0.106, 192.0, 0.0, 0.0, 0.0, 0.0, 0.0, 0.0, 0.0, 0.0, 0.0, 1.718470499890243E9, 0.0, 2024-06-15 11:54:59.890
228.0, 38348.30681661449, -123266.78613028362, 74407.79500100554, -187500.02235174447, -95175.73954769845, -187500.02235174447, -187500.02235174447, 10167.20505561889, -0.138, 0.964, -0.106, 192.0, 0.0, 0.0, 0.0, 0.0, 0.0, 0.0, 0.0, 0.0, 0.0, 1.7184704998902528E9, 0.0, 2024-06-15 11:54:59.890
229.0, 38338.27088335406, -121887.32586947989, 76867.96210622336, -187500.02235174447, -92756.92316972294, -187500.02235174447, -187500.02235174447, 11133.24745097726, -0.14, 0.964, -0.108, 192.0, 251.0, 160.0, 30.0, 32.0, 252.0, 160.0, 0.0, 0.0, 0.0, 1.7184704998902624E9, 0.0, 2024-06-15 11:54:59.890
230.0, 38334.649900752294, -121296.56926352612, 77404.00164175054, -187500.02235174447, -91543.58107371106, -187500.02235174447, -187500.02235174447, 10938.831977705, -0.14, 0.964, -0.108, 192.0, 0.0, 0.0, 0.0, 0.0, 0.0, 0.0, 0.0, 0.0, 0.0, 1.718470499890272E9, 0.0, 2024-06-15 11:54:59.890
231.0, 38335.231046108136, -122272.40172295591, 75267.24192705654, -187500.02235174447, -93303.53508037748, -187500.02235174447, -187500.02235174447, 10816.61263902338, -0.14, 0.964, -0.108, 192.0, 0.0, 0.0, 0.0, 0.0, 0.0, 0.0, 0.0, 0.0, 0.0, 1.7184704998902814E9, 0.0, 2024-06-15 11:54:59.890
232.0, 38366.79170927903, -123275.01157224317, 74212.32899574387, -187500.02235174447, -95226.38860063418, -187500.02235174447, -187500.02235174447, 10154.419857790454, -0.14, 0.964, -0.108, 192.0, 0.0, 0.0, 0.0, 0.0, 0.0, 0.0, 0.0, 0.0, 0.0, 1.718470499890291E9, 0.0, 2024-06-15 11:54:59.890
233.0, 38352.553648060995, -122102.5731685845, 76475.24195614361, -187500.02235174447, -93146.22350290102, -187500.02235174447, -187500.02235174447, 11155.889768110486, -0.14, 0.964, -0.108, 192.0, 0.0, 0.0, 0.0, 0.0, 0.0, 0.0, 0.0, 0.0, 0.0, 1.7184704998903005E9, 0.0, 2024-06-15 11:54:59.890
234.0, 38345.06581366847, -121287.40504829945, 77551.97019004467, -187500.02235174447, -91467.40632860737, -187500.02235174447, -187500.02235174447, 10958.568568059036, -0.14, 0.964, -0.108, 192.0, 0.0, 0.0, 0.0, 0.0, 0.0, 0.0, 0.0, 0.0, 0.0, 1.71847049989031E9, 0.0, 2024-06-15 11:54:59.890
235.0, 38346.608084035885, -122041.46349924369, 75694.38376359746, -187500.02235174447, -92799.54794639921, -187500.02235174447, -187500.02235174447, 10943.771713229622, -0.14, 0.964, -0.108, 192.0, 0.0, 0.0, 0.0, 0.0, 0.0, 0.0, 0.0, 0.0, 0.0, 1.7184704998903196E9, 0.0, 2024-06-15 11:54:59.890
236.0, 38398.86646257239, -123338.5128782407, 74090.64609892918, -187500.02235174447, -95242.9288915311, -187500.02235174447, -187500.02235174447, 10072.65717657294, -0.14, 0.964, -0.108, 192.0, 0.0, 0.0, 0.0, 0.0, 0.0, 0.0, 0.0, 0.0, 0.0, 1.7184704998903291E9, 0.0, 2024-06-15 11:54:59.890
237.0, 38357.8510114969, -122434.94360863492, 76013.1419912746, -187500.02235174447, -93688.65563734241, -187500.02235174447, -187500.02235174447, 11002.579152891536, -0.14, 0.964, -0.108, 192.0, 0.0, 0.0, 0.0, 0.0, 0.0, 0.0, 0.0, 0.0, 0.0, 1.7184704998903403E9, 0.0, 2024-06-15 11:54:59.890
238.0, 38353.51477307257, -121387.38440124804, 77602.88746391385, -187500.02235174447, -91583.72480675278, -187500.02235174447, -187500.02235174447, 10947.750323742668, -0.14, 0.964, -0.108, 192.0, 0.0, 0.0, 0.0, 0.0, 0.0, 0.0, 0.0, 0.0, 0.0, 1.71847049989035E9, 0.0, 2024-06-15 11:54:59.890
239.0, 38344.21644737917, -121829.4572030851, 76166.60906870474, -187500.02235174447, -92346.20986535668, -187500.02235174447, -187500.02235174447, 11011.60925765148, -0.126, 0.974, -0.108, 192.0, 252.0, 16.0, 30.0, 112.0, 252.0, 160.0, 0.0, 0.0, 0.0, 1.7184704998903596E9, 0.0, 2024-06-15 11:54:59.890
240.0, 38360.466165598176, -123235.87366770193, 74139.97639894205, -187500.02235174447, -94997.70790311194, -187500.02235174447, -187500.02235174447, 10147.781389687229, -0.126, 0.974, -0.108, 192.0, 0.0, 0.0, 0.0, 0.0, 0.0, 0.0, 0.0, 0.0, 0.0, 1.7184704998903692E9, 0.0, 2024-06-15 11:54:59.890
241.0, 38322.6470139798, -122710.31710032429, 75531.03721511808, -187500.02235174447, -94160.07627964929, -187500.02235174447, -187500.02235174447, 10835.410456110294, -0.126, 0.974, -0.108, 192.0, 0.0, 0.0, 0.0, 0.0, 0.0, 0.0, 0.0, 0.0, 0.0, 1.7184704998903787E9, 0.0, 2024-06-15 11:54:59.890
242.0, 38292.24864152058, -121446.72828277688, 77562.81078610549, -187500.02235174447, -91691.639028983, -187500.02235174447, -187500.02235174447, 11054.077572116563, -0.126, 0.974, -0.108, 192.0, 0.0, 0.0, 0.0, 0.0, 0.0, 0.0, 0.0, 0.0, 0.0, 1.7184704998903885E9, 0.0, 2024-06-15 11:54:59.890
243.0, 38247.14282120977, -121633.56651467878, 76561.98907637467, -187500.02235174447, -91929.90862487658, -187500.02235174447, -187500.02235174447, 11031.569365450068, -0.126, 0.974, -0.108, 192.0, 0.0, 0.0, 0.0, 0.0, 0.0, 0.0, 0.0, 0.0, 0.0, 1.7184704998903985E9, 0.0, 2024-06-15 11:54:59.890
244.0, 38277.09415877988, -123039.2453717286, 74309.6931945912, -187500.02235174447, -94576.57868582949, -187500.02235174447, -187500.02235174447, 10291.391347812576, -0.126, 0.974, -0.108, 192.0, 0.0, 0.0, 0.0, 0.0, 0.0, 0.0, 0.0, 0.0, 0.0, 1.7184704998904088E9, 0.0, 2024-06-15 11:54:59.890
245.0, 38247.38869039878, -122965.23874583706, 75053.69336053054, -187500.02235174447, -94565.44751709075, -187500.02235174447, -187500.02235174447, 10571.883388982224, -0.126, 0.974, -0.108, 192.0, 0.0, 0.0, 0.0, 0.0, 0.0, 0.0, 0.0, 0.0, 0.0, 1.7184704998904216E9, 0.0, 2024-06-15 11:54:59.890
246.0, 38223.85230348734, -121636.09226180223, 77368.32825759986, -187500.02235174447, -91960.97754966946, -187500.02235174447, -187500.02235174447, 11024.103882801995, -0.126, 0.974, -0.108, 192.0, 0.0, 0.0, 0.0, 0.0, 0.0, 0.0, 0.0, 0.0, 0.0, 1.7184704998904324E9, 0.0, 2024-06-15 11:54:59.890
247.0, 38184.89321290174, -121569.75228425888, 76914.47608643485, -187500.02235174447, -91669.01906359424, -187500.02235174447, -187500.02235174447, 10843.680601558757, -0.126, 0.974, -0.108, 192.0, 0.0, 0.0, 0.0, 0.0, 0.0, 0.0, 0.0, 0.0, 0.0, 1.7184704998904426E9, 0.0, 2024-06-15 11:54:59.890
248.0, 38185.675523957674, -122785.28485122739, 74618.52724773018, -187500.02235174447, -94241.52603644444, -187500.02235174447, -187500.02235174447, 10471.971091267002, -0.126, 0.974, -0.108, 192.0, 0.0, 0.0, 0.0, 0.0, 0.0, 0.0, 0.0, 0.0, 0.0, 1.7184704998904529E9, 0.0, 2024-06-15 11:54:59.890
249.0, 38157.62408466626, -122855.82695672834, 74745.46280449186, -187500.02235174447, -95348.04914570441, -187500.02235174447, -187500.02235174447, 10849.581462094959, -0.006, 1.0, -0.112, 192.0, 255.0, 208.0, 31.0, 64.0, 252.0, 128.0, 0.0, 0.0, 0.0, 1.718470499890484E9, 0.0, 2024-06-15 11:54:59.890
250.0, 38161.89326785723, -122297.36862151249, 76977.03861916527, -187500.02235174447, -91908.56270892176, -187500.02235174447, -187500.02235174447, 10209.002817750314, -0.006, 1.0, -0.112, 192.0, 0.0, 0.0, 0.0, 0.0, 0.0, 0.0, 0.0, 0.0, 0.0, 1.7184704998904953E9, 0.0, 2024-06-15 11:54:59.890
251.0, 38141.754346103, -122581.90632842855, 77027.15123023406, -187500.02235174447, -90299.59473605095, -187500.02235174447, -187500.02235174447, 8765.862436993413, -0.006, 1.0, -0.112, 192.0, 0.0, 0.0, 0.0, 0.0, 0.0, 0.0, 0.0, 0.0, 0.0, 1.7184704998905115E9, 0.0, 2024-06-15 11:54:59.890
252.0, 38131.427840164644, -122905.60429163031, 75015.00249087841, -187500.02235174447, -93153.44311636008, -187500.02235174447, -187500.02235174447, 9909.400035071378, -0.006, 1.0, -0.112, 192.0, 0.0, 0.0, 0.0, 0.0, 0.0, 0.0, 0.0, 0.0, 0.0, 1.718470499890522E9, 0.0, 2024-06-15 11:54:59.890
253.0, 38138.02160477896, -122741.65424605063, 74560.56917435756, -187500.02235174447, -95645.66262312683, -187500.02235174447, -187500.02235174447, 11102.759671540221, -0.006, 1.0, -0.112, 192.0, 0.0, 0.0, 0.0, 0.0, 0.0, 0.0, 0.0, 0.0, 0.0, 1.7184704998905482E9, 0.0, 2024-06-15 11:54:59.890
254.0, 38125.88460753973, -122229.93340849083, 76713.5562555261, -187500.02235174447, -92484.29894260156, -187500.02235174447, -187500.02235174447, 10724.165823956231, -0.006, 1.0, -0.112, 192.0, 0.0, 0.0, 0.0, 0.0, 0.0, 0.0, 0.0, 0.0, 0.0, 1.7184704998905585E9, 0.0, 2024-06-15 11:54:59.890
255.0, 38107.802046275385, -122460.04461765822, 77278.25072744497, -187500.02235174447, -90134.43769627067, -187500.02235174447, -187500.02235174447, 8813.762225361137, -0.006, 1.0, -0.112, 192.0, 0.0, 0.0, 0.0, 0.0, 0.0, 0.0, 0.0, 0.0, 0.0, 1.7184704998905694E9, 0.0, 2024-06-15 11:54:59.890
0.0, 38096.402656603175, -122838.43729954211, 75404.63810022332, -187500.02235174447, -92233.33355585737, -187500.02235174447, -187500.02235174447, 9628.349200290348, -0.006, 1.0, -0.112, 192.0, 0.0, 0.0, 0.0, 0.0, 0.0, 0.0, 0.0, 0.0, 0.0, 1.7184704998905792E9, 0.0, 2024-06-15 11:54:59.890
1.0, 38123.98470926103, -122941.79176590346, 74356.74361666961, -187500.02235174447, -95455.29281560097, -187500.02235174447, -187500.02235174447, 10673.382660553772, -0.006, 1.0, -0.112, 192.0, 0.0, 0.0, 0.0, 0.0, 0.0, 0.0, 0.0, 0.0, 0.0, 1.7184704998905897E9, 0.0, 2024-06-15 11:54:59.890
2.0, 38078.163633127646, -122040.77059516557, 76407.3820599773, -187500.02235174447, -93361.35904328336, -187500.02235174447, -187500.02235174447, 11368.276043924814, -0.006, 1.0, -0.112, 192.0, 0.0, 0.0, 0.0, 0.0, 0.0, 0.0, 0.0, 0.0, 0.0, 1.7184704998905995E9, 0.0, 2024-06-15 11:54:59.890
3.0, 38087.48431056551, -121668.54699475135, 77571.03622806504, -187500.02235174447, -90880.87420235566, -187500.02235174447, -187500.02235174447, 10091.879676804505, 0.062, 1.018, -0.132, 192.0, 1.0, 240.0, 31.0, 208.0, 251.0, 224.0, 0.0, 0.0, 0.0, 1.7184704998906124E9, 0.0, 2024-06-15 11:54:59.890
4.0, 38096.425008347636, -122569.90344165606, 75795.61481423555, -187500.02235174447, -91724.2502241433, -187500.02235174447, -187500.02235174447, 9590.37358646078, 0.062, 1.018, -0.132, 192.0, 0.0, 0.0, 0.0, 0.0, 0.0, 0.0, 0.0, 0.0, 0.0, 1.718470499890622E9, 0.0, 2024-06-15 11:54:59.890
5.0, 38127.18100871814, -123894.11019016626, 74068.33905796279, -187500.02235174447, -94207.26081219445, -187500.02235174447, -187500.02235174447, 8597.55380124495, 0.062, 1.018, -0.132, 192.0, 0.0, 0.0, 0.0, 0.0, 0.0, 0.0, 0.0, 0.0, 0.0, 1.7184704998906329E9, 0.0, 2024-06-15 11:54:59.890
6.0, 38091.21705188955, -123077.24333730261, 75850.82362304015, -187500.02235174447, -92908.02096224081, -187500.02235174447, -187500.02235174447, 9472.512837947947, 0.062, 1.018, -0.132, 192.0, 0.0, 0.0, 0.0, 0.0, 0.0, 0.0, 0.0, 0.0, 0.0, 1.718470499890644E9, 0.0, 2024-06-15 11:54:59.890
7.0, 38097.58729905931, -121871.85846231681, 77650.09434820346, -187500.02235174447, -90714.21959569688, -187500.02235174447, -187500.02235174447, 9470.232960013505, 0.062, 1.018, -0.132, 192.0, 0.0, 0.0, 0.0, 0.0, 0.0, 0.0, 0.0, 0.0, 0.0, 1.7184704998906536E9, 0.0, 2024-06-15 11:54:59.890
8.0, 38078.54361278339, -122258.47658616026, 76296.8079801569, -187500.02235174447, -91289.24057355411, -187500.02235174447, -187500.02235174447, 9416.991104720963, 0.062, 1.018, -0.132, 192.0, 0.0, 0.0, 0.0, 0.0, 0.0, 0.0, 0.0, 0.0, 0.0, 1.7184704998906636E9, 0.0, 2024-06-15 11:54:59.890
9.0, 38112.45120912209, -123741.06779588078, 74171.93939351314, -187500.02235174447, -93845.16255201848, -187500.02235174447, -187500.02235174447, 8345.157902855624, 0.062, 1.018, -0.132, 192.0, 0.0, 0.0, 0.0, 0.0, 0.0, 0.0, 0.0, 0.0, 0.0, 1.7184704998906736E9, 0.0, 2024-06-15 11:54:59.890
10.0, 38108.24908116449, -123347.23005857827, 75396.74793443059, -187500.02235174447, -93222.21943404907, -187500.02235174447, -187500.02235174447, 8813.002266049656, 0.062, 1.018, -0.132, 192.0, 0.0, 0.0, 0.0, 0.0, 0.0, 0.0, 0.0, 0.0, 0.0, 1.7184704998906834E9, 0.0, 2024-06-15 11:54:59.890
11.0, 38132.16544773167, -121977.2916409125, 77591.64453645283, -187500.02235174447, -90780.71603545142, -187500.02235174447, -187500.02235174447, 9042.353515905561, 0.062, 1.018, -0.132, 192.0, 0.0, 0.0, 0.0, 0.0, 0.0, 0.0, 0.0, 0.0, 0.0, 1.7184704998907144E9, 0.0, 2024-06-15 11:54:59.890
12.0, 38098.48136883752, -122143.05217779306, 76710.8069909581, -187500.02235174447, -90854.14151598711, -187500.02235174447, -187500.02235174447, 8790.561114616528, 0.062, 1.018, -0.132, 192.0, 0.0, 0.0, 0.0, 0.0, 0.0, 0.0, 0.0, 0.0, 0.0, 1.7184704998907244E9, 0.0, 2024-06-15 11:54:59.890
13.0, 38106.01390671896, -123583.15272130404, 74393.22166362067, -187500.02235174447, -93203.51102393998, -187500.02235174447, -187500.02235174447, 7895.843135815041, 0.062, 1.018, -0.132, 192.0, 0.0, 0.0, 0.0, 0.0, 0.0, 0.0, 0.0, 0.0, 0.0, 1.718470499890735E9, 0.0, 2024-06-15 11:54:59.890
14.0, 38124.521151127956, -123636.26046612984, 74964.75576934288, -187500.02235174447, -93328.01024055603, -187500.02235174447, -187500.02235174447, 7902.302789962625, 0.048, 1.01, -0.158, 192.0, 1.0, 128.0, 31.0, 144.0, 251.0, 16.0, 0.0, 0.0, 0.0, 1.7184704998907447E9, 0.0, 2024-06-15 11:54:59.890
15.0, 38191.28581181596, -122138.69358762426, 77430.8237350969, -187500.02235174447, -90802.1290066396, -187500.02235174447, -187500.02235174447, 8481.950578922102, 0.048, 1.01, -0.158, 192.0, 0.0, 0.0, 0.0, 0.0, 0.0, 0.0, 0.0, 0.0, 0.0, 1.7184704998907552E9, 0.0, 2024-06-15 11:54:59.890
16.0, 38169.06817782738, -121973.60360307737, 77131.17624892906, -187500.02235174447, -90356.54698092306, -187500.02235174447, -187500.02235174447, 8133.330420652679, 0.048, 1.01, -0.158, 192.0, 0.0, 0.0, 0.0, 0.0, 0.0, 0.0, 0.0, 0.0, 0.0, 1.7184704998907654E9, 0.0, 2024-06-15 11:54:59.890
17.0, 38177.584192464856, -123345.12899459946, 74728.29666475019, -187500.02235174447, -92414.71796211219, -187500.02235174447, -187500.02235174447, 7440.582804749347, 0.048, 1.01, -0.158, 192.0, 0.0, 0.0, 0.0, 0.0, 0.0, 0.0, 0.0, 0.0, 0.0, 1.7184704998907912E9, 0.0, 2024-06-15 11:54:59.890
18.0, 38187.19544258063, -123915.67962356564, 74570.47099715126, -187500.02235174447, -93311.8722810593, -187500.02235174447, -187500.02235174447, 6896.004902840245, 0.048, 1.01, -0.158, 192.0, 0.0, 0.0, 0.0, 0.0, 0.0, 0.0, 0.0, 0.0, 0.0, 1.7184704998908012E9, 0.0, 2024-06-15 11:54:59.890
19.0, 38180.087587843846, -122421.35374800608, 77135.5571908423, -187500.02235174447, -90894.64287694012, -187500.02235174447, -187500.02235174447, 7761.240930705182, 0.048, 1.01, -0.158, 192.0, 0.0, 0.0, 0.0, 0.0, 0.0, 0.0, 0.0, 0.0, 0.0, 1.718470499890812E9, 0.0, 2024-06-15 11:54:59.890
20.0, 38183.4627012566, -121915.48906749357, 77437.41749971123, -187500.02235174447, -90006.5410144974, -187500.02235174447, -187500.02235174447, 7386.335120956317, 0.048, 1.01, -0.158, 192.0, 0.0, 0.0, 0.0, 0.0, 0.0, 0.0, 0.0, 0.0, 0.0, 1.7184704998908217E9, 0.0, 2024-06-15 11:54:59.890
21.0, 38195.17501535118, -123083.01008737208, 75139.54641098338, -187500.02235174447, -91570.53727752416, -187500.02235174447, -187500.02235174447, 6980.695662581404, 0.048, 1.01, -0.158, 192.0, 0.0, 0.0, 0.0, 0.0, 0.0, 0.0, 0.0, 0.0, 0.0, 1.7184704998908515E9, 0.0, 2024-06-15 11:54:59.890
22.0, 38233.30709139194, -124122.83559117743, 74260.49700504506, -187500.02235174447, -93071.59102816475, -187500.02235174447, -187500.02235174447, 5960.159714240995, 0.048, 1.01, -0.158, 192.0, 0.0, 0.0, 0.0, 0.0, 0.0, 0.0, 0.0, 0.0, 0.0, 1.7184704998908625E9, 0.0, 2024-06-15 11:54:59.890
23.0, 38204.94272767815, -122731.79712674585, 76717.71367999479, -187500.02235174447, -90946.49892407644, -187500.02235174447, -187500.02235174447, 7052.601224494127, 0.048, 1.01, -0.158, 192.0, 0.0, 0.0, 0.0, 0.0, 0.0, 0.0, 0.0, 0.0, 0.0, 1.7184704998908737E9, 0.0, 2024-06-15 11:54:59.890
24.0, 38204.29452708895, -121907.04010808947, 77612.25284484064, -187500.02235174447, -89705.9771068069, -187500.02235174447, -187500.02235174447, 6744.504778922174, -0.07200000000000001, 0.996, -0.18, 192.0, 253.0, 192.0, 31.0, 32.0, 250.0, 96.0, 0.0, 0.0, 0.0, 1.7184704998909016E9, 0.0, 2024-06-15 11:54:59.890
25.0, 38184.356771034814, -122876.36820988277, 75536.69220646528, -187500.02235174447, -90833.77907678833, -187500.02235174447, -187500.02235174447, 6488.66671188673, -0.07200000000000001, 0.996, -0.18, 192.0, 0.0, 0.0, 0.0, 0.0, 0.0, 0.0, 0.0, 0.0, 0.0, 1.7184704998909125E9, 0.0, 2024-06-15 11:54:59.890
26.0, 38223.6734895317, -124194.7635048346, 74080.40899996865, -187500.02235174447, -92673.50645941573, -187500.02235174447, -187500.02235174447, 5243.495731770484, -0.07200000000000001, 0.996, -0.18, 192.0, 0.0, 0.0, 0.0, 0.0, 0.0, 0.0, 0.0, 0.0, 0.0, 1.7184704998909225E9, 0.0, 2024-06-15 11:54:59.890
27.0, 38244.08063221939, -123103.2607678486, 76216.94519721808, -187500.02235174447, -91021.35491625726, -187500.02235174447, -187500.02235174447, 6255.135685817681, -0.07200000000000001, 0.996, -0.18, 192.0, 0.0, 0.0, 0.0, 0.0, 0.0, 0.0, 0.0, 0.0, 0.0, 1.7184704998909323E9, 0.0, 2024-06-15 11:54:59.890
28.0, 38268.3322749534, -121970.3849518758, 77708.11947680944, -187500.02235174447, -89450.27315023818, -187500.02235174447, -187500.02235174447, 6116.934849850518, -0.07200000000000001, 0.996, -0.18, 192.0, 0.0, 0.0, 0.0, 0.0, 0.0, 0.0, 0.0, 0.0, 0.0, 1.718470499890942E9, 0.0, 2024-06-15 11:54:59.890
29.0, 38215.35864059432, -122589.75179073236, 76006.97290980493, -187500.02235174447, -90036.09002066733, -187500.02235174447, -187500.02235174447, 6005.399645018536, -0.07200000000000001, 0.996, -0.18, 192.0, 0.0, 0.0, 0.0, 0.0, 0.0, 0.0, 0.0, 0.0, 0.0, 1.718470499890952E9, 0.0, 2024-06-15 11:54:59.890
30.0, 38274.76957735653, -124166.24267890964, 73985.48114126697, -187500.02235174447, -92120.45724635807, -187500.02235174447, -187500.02235174447, 4631.303802884078, -0.07200000000000001, 0.996, -0.18, 192.0, 0.0, 0.0, 0.0, 0.0, 0.0, 0.0, 0.0, 0.0, 0.0, 1.7184704998909829E9, 0.0, 2024-06-15 11:54:59.890
31.0, 38315.53915924301, -123477.60778398608, 75646.5510304631, -187500.02235174447, -91072.8980389712, -187500.02235174447, -187500.02235174447, 5355.187398813653, -0.07200000000000001, 0.996, -0.18, 192.0, 0.0, 0.0, 0.0, 0.0, 0.0, 0.0, 0.0, 0.0, 0.0, 1.7184704998909965E9, 0.0, 2024-06-15 11:54:59.890
32.0, 38311.8958248968, -122091.64316554584, 77682.2361567302, -187500.02235174447, -89260.77506074609, -187500.02235174447, -187500.02235174447, 5516.656400758791, -0.07200000000000001, 0.996, -0.18, 192.0, 0.0, 0.0, 0.0, 0.0, 0.0, 0.0, 0.0, 0.0, 0.0, 1.7184704998910065E9, 0.0, 2024-06-15 11:54:59.891
33.0, 38231.60835881333, -122424.63945444101, 76447.83871744141, -187500.02235174447, -89495.08839787108, -187500.02235174447, -187500.02235174447, 5387.016282918011, -0.07200000000000001, 0.996, -0.18, 192.0, 0.0, 0.0, 0.0, 0.0, 0.0, 0.0, 0.0, 0.0, 0.0, 1.7184704998910322E9, 0.0, 2024-06-15 11:54:59.891
34.0, 38265.583010385395, -124065.36925618284, 74084.05233431487, -187500.02235174447, -91534.61802418447, -187500.02235174447, -187500.02235174447, 4166.499276935969, -0.194, 0.984, -0.164, 192.0, 249.0, 240.0, 30.0, 192.0, 250.0, 224.0, 0.0, 0.0, 0.0, 1.718470499891042E9, 0.0, 2024-06-15 11:54:59.891
35.0, 38284.29142049449, -123857.96741938204, 75100.78848609788, -187500.02235174447, -91178.97941815609, -187500.02235174447, -187500.02235174447, 4451.126390829849, -0.194, 0.984, -0.164, 192.0, 0.0, 0.0, 0.0, 0.0, 0.0, 0.0, 0.0, 0.0, 0.0, 1.7184704998910518E9, 0.0, 2024-06-15 11:54:59.891
36.0, 38295.73551365561, -122294.23937728876, 77525.81864903196, -187500.02235174447, -89201.47588270616, -187500.02235174447, -187500.02235174447, 4985.087214122679, -0.194, 0.984, -0.164, 192.0, 0.0, 0.0, 0.0, 0.0, 0.0, 0.0, 0.0, 0.0, 0.0, 1.7184704998910613E9, 0.0, 2024-06-15 11:54:59.891
37.0, 38253.73658582409, -122275.57567066856, 76862.55298406517, -187500.02235174447, -89078.65304692424, -187500.02235174447, -187500.02235174447, 4828.62500293553, -0.194, 0.984, -0.164, 192.0, 0.0, 0.0, 0.0, 0.0, 0.0, 0.0, 0.0, 0.0, 0.0, 1.7184704998910716E9, 0.0, 2024-06-15 11:54:59.891
38.0, 38300.67524918023, -123880.31916383734, 74340.20332577269, -187500.02235174447, -90958.45710736002, -187500.02235174447, -187500.02235174447, 3848.4786568258596, -0.194, 0.984, -0.164, 192.0, 0.0, 0.0, 0.0, 0.0, 0.0, 0.0, 0.0, 0.0, 0.0, 1.718470499891103E9, 0.0, 2024-06-15 11:54:59.891
0.0, 0.0, 0.0, 0.0, 0.0, 0.0, 0.0, 0.0, 0.0, -0.12, 0.984, -0.006, 192.0, 252.0, 64.0, 30.0, 192.0, 255.0, 208.0, 0.0, 0.0, 0.0, 1.7184704999997623E9, 0.0, 2024-06-15 11:54:59.999
1.0, 39725.33073727259, -121477.41722791402, 77476.35423855236, -187500.02235174447, -78814.17319943586, -187500.02235174447, -187500.02235174447, -16502.78466973122, -0.12, 0.984, -0.006, 192.0, 0.0, 0.0, 0.0, 0.0, 0.0, 0.0, 0.0, 0.0, 0.0, 1.718470500477702E9, 0.0, 2024-06-15 11:55:00.477
2.0, 39892.253564864826, -123341.95504688681, 76732.04114819063, -187500.02235174447, -81393.27393690037, -187500.02235174447, -187500.02235174447, -23297.536170188927, -0.12, 0.984, -0.006, 192.0, 0.0, 0.0, 0.0, 0.0, 0.0, 0.0, 0.0, 0.0, 0.0, 1.7184705004779215E9, 0.0, 2024-06-15 11:55:00.477
3.0, 39778.03615069821, -124351.38217823293, 75819.88880871401, -187500.02235174447, -82694.23487117706, -187500.02235174447, -187500.02235174447, -25004.270673307263, -0.12, 0.984, -0.006, 192.0, 0.0, 0.0, 0.0, 0.0, 0.0, 0.0, 0.0, 0.0, 0.0, 1.718470500477934E9, 0.0, 2024-06-15 11:55:00.477
4.0, 39588.71687516176, -122473.07568467567, 76731.2141336458, -187500.02235174447, -80173.65100069654, -187500.02235174447, -187500.02235174447, -18106.522334399502, -0.12, 0.984, -0.006, 192.0, 0.0, 0.0, 0.0, 0.0, 0.0, 0.0, 0.0, 0.0, 0.0, 1.7184705004779446E9, 0.0, 2024-06-15 11:55:00.477
5.0, 39688.96444904381, -121310.31558636614, 77590.0128591076, -187500.02235174447, -78610.39234523682, -187500.02235174447, -187500.02235174447, -15768.283995185377, -0.12, 0.984, -0.006, 192.0, 0.0, 0.0, 0.0, 0.0, 0.0, 0.0, 0.0, 0.0, 0.0, 1.7184705004779549E9, 0.0, 2024-06-15 11:55:00.477
6.0, 39884.02812290527, -123040.18414499571, 76821.80575392315, -187500.02235174447, -81085.78098842871, -187500.02235174447, -187500.02235174447, -22142.398016738658, -0.12, 0.984, -0.006, 192.0, 0.0, 0.0, 0.0, 0.0, 0.0, 0.0, 0.0, 0.0, 0.0, 1.7184705004779649E9, 0.0, 2024-06-15 11:55:00.477
7.0, 39820.50446516329, -124373.3539430325, 75949.86420272163, -187500.02235174447, -82771.90718315926, -187500.02235174447, -187500.02235174447, -25471.690353356644, -0.12, 0.984, -0.006, 192.0, 0.0, 0.0, 0.0, 0.0, 0.0, 0.0, 0.0, 0.0, 0.0, 1.718470500477975E9, 0.0, 2024-06-15 11:55:00.477
8.0, 39592.38256125242, -122938.97544610208, 76393.85925458184, -187500.02235174447, -80911.83971307751, -187500.02235174447, -187500.02235174447, -19422.481289205705, -0.078, 0.976, 0.064, 192.0, 253.0, 144.0, 30.0, 128.0, 2.0, 0.0, 0.0, 0.0, 0.0, 1.7184705004779894E9, 0.0, 2024-06-15 11:55:00.477
9.0, 39662.56703884209, -121236.39836745244, 77642.78532776659, -187500.02235174447, -78557.23989692211, -187500.02235174447, -187500.02235174447, -15366.08670545658, -0.078, 0.976, 0.064, 192.0, 0.0, 0.0, 0.0, 0.0, 0.0, 0.0, 0.0, 0.0, 0.0, 1.7184705004779992E9, 0.0, 2024-06-15 11:55:00.477
10.0, 39865.69969245192, -122766.15175797365, 76874.64527781549, -187500.02235174447, -80797.37642972189, -187500.02235174447, -187500.02235174447, -20960.124845519644, -0.078, 0.976, 0.064, 192.0, 0.0, 0.0, 0.0, 0.0, 0.0, 0.0, 0.0, 0.0, 0.0, 1.7184705004780092E9, 0.0, 2024-06-15 11:55:00.478
11.0, 39837.46943920487, -124310.56789285755, 76100.1126289502, -187500.02235174447, -82757.04327309648, -187500.02235174447, -187500.02235174447, -25668.184538863246, -0.078, 0.976, 0.064, 192.0, 0.0, 0.0, 0.0, 0.0, 0.0, 0.0, 0.0, 0.0, 0.0, 1.718470500478019E9, 0.0, 2024-06-15 11:55:00.478
12.0, 39646.83141074555, -123440.79446086819, 76064.41689305508, -187500.02235174447, -81680.78442582898, -187500.02235174447, -187500.02235174447, -20911.17452516252, -0.078, 0.976, 0.064, 192.0, 0.0, 0.0, 0.0, 0.0, 0.0, 0.0, 0.0, 0.0, 0.0, 1.7184705004780288E9, 0.0, 2024-06-15 11:55:00.478
13.0, 39632.16866638287, -121326.9899877298, 77586.0118968501, -187500.02235174447, -78729.86241935044, -187500.02235174447, -187500.02235174447, -15395.278083715211, -0.078, 0.976, 0.064, 192.0, 0.0, 0.0, 0.0, 0.0, 0.0, 0.0, 0.0, 0.0, 0.0, 1.7184705004780383E9, 0.0, 2024-06-15 11:55:00.478
14.0, 39852.825087645666, -122420.28086427222, 76985.19700589144, -187500.02235174447, -80412.70290764606, -187500.02235174447, -187500.02235174447, -19699.531161729235, -0.078, 0.976, 0.064, 192.0, 0.0, 0.0, 0.0, 0.0, 0.0, 0.0, 0.0, 0.0, 0.0, 1.718470500478048E9, 0.0, 2024-06-15 11:55:00.478
15.0, 39883.3128670827, -124111.81618116096, 76308.05090761792, -187500.02235174447, -82589.7404658485, -187500.02235174447, -187500.02235174447, -25453.876013025765, -0.078, 0.976, 0.064, 192.0, 0.0, 0.0, 0.0, 0.0, 0.0, 0.0, 0.0, 0.0, 0.0, 1.718470500478058E9, 0.0, 2024-06-15 11:55:00.478
16.0, 39685.05289376413, -123828.9772068235, 75851.404768396, -187500.02235174447, -82289.98122095839, -187500.02235174447, -187500.02235174447, -22337.03700745547, -0.078, 0.976, 0.064, 192.0, 0.0, 0.0, 0.0, 0.0, 0.0, 0.0, 0.0, 0.0, 0.0, 1.7184705004780679E9, 0.0, 2024-06-15 11:55:00.478
17.0, 39598.752808422185, -121450.88570724556, 77493.83330271642, -187500.02235174447, -78986.01341080826, -187500.02235174447, -187500.02235174447, -15700.513505996885, -0.078, 0.976, 0.064, 192.0, 0.0, 0.0, 0.0, 0.0, 0.0, 0.0, 0.0, 0.0, 0.0, 1.7184705004780777E9, 0.0, 2024-06-15 11:55:00.478
18.0, 39799.180900952924, -122062.85411868742, 77123.77782151435, -187500.02235174447, -79987.25980368374, -187500.02235174447, -187500.02235174447, -18474.163827200395, -0.058, 0.98, 0.096, 192.0, 254.0, 48.0, 30.0, 160.0, 3.0, 0.0, 0.0, 0.0, 0.0, 1.7184705004780874E9, 0.0, 2024-06-15 11:55:00.478
19.0, 39892.20886137591, -123898.58053905732, 76433.10891784537, -187500.02235174447, -82401.18114962353, -187500.02235174447, -187500.02235174447, -24963.814015843156, -0.058, 0.98, 0.096, 192.0, 0.0, 0.0, 0.0, 0.0, 0.0, 0.0, 0.0, 0.0, 0.0, 1.7184705004780972E9, 0.0, 2024-06-15 11:55:00.478
20.0, 39736.50660950025, -124149.12124265687, 75740.51776415322, -187500.02235174447, -82774.3882267938, -187500.02235174447, -187500.02235174447, -23639.473156866214, -0.058, 0.98, 0.096, 192.0, 0.0, 0.0, 0.0, 0.0, 0.0, 0.0, 0.0, 0.0, 0.0, 1.7184705004781067E9, 0.0, 2024-06-15 11:55:00.478
21.0, 39596.02589559864, -121709.58479757128, 77318.72973665353, -187500.02235174447, -79436.6022272828, -187500.02235174447, -187500.02235174447, -16380.475924071781, -0.058, 0.98, 0.096, 192.0, 0.0, 0.0, 0.0, 0.0, 0.0, 0.0, 0.0, 0.0, 0.0, 1.7184705004781165E9, 0.0, 2024-06-15 11:55:00.478
22.0, 39762.09935690157, -121708.78013477089, 77317.38863198622, -187500.02235174447, -79563.49308055558, -187500.02235174447, -187500.02235174447, -17362.119837059956, -0.058, 0.98, 0.096, 192.0, 0.0, 0.0, 0.0, 0.0, 0.0, 0.0, 0.0, 0.0, 0.0, 1.718470500478126E9, 0.0, 2024-06-15 11:55:00.478
23.0, 39912.19132091896, -123602.03994536877, 76594.15323664586, -187500.02235174447, -82129.29453006918, -187500.02235174447, -187500.02235174447, -24186.73326810995, -0.058, 0.98, 0.096, 192.0, 0.0, 0.0, 0.0, 0.0, 0.0, 0.0, 0.0, 0.0, 0.0, 1.718470500478136E9, 0.0, 2024-06-15 11:55:00.478
24.0, 39784.89813624598, -124322.68253835232, 75773.24071803578, -187500.02235174447, -83068.64894254792, -187500.02235174447, -187500.02235174447, -24699.258768470143, -0.058, 0.98, 0.096, 192.0, 0.0, 0.0, 0.0, 0.0, 0.0, 0.0, 0.0, 0.0, 0.0, 1.7184705004781456E9, 0.0, 2024-06-15 11:55:00.478
25.0, 39610.35336379449, -122142.60514290395, 77015.97535800641, -187500.02235174447, -80103.60063357362, -187500.02235174447, -187500.02235174447, -17491.715251411828, -0.058, 0.98, 0.096, 192.0, 0.0, 0.0, 0.0, 0.0, 0.0, 0.0, 0.0, 0.0, 0.0, 1.7184705004781551E9, 0.0, 2024-06-15 11:55:00.478
26.0, 39763.50751680226, -121504.99928057186, 77445.3300172484, -187500.02235174447, -79300.01071691641, -187500.02235174447, -187500.02235174447, -16562.03914428224, -0.058, 0.98, 0.096, 192.0, 0.0, 0.0, 0.0, 0.0, 0.0, 0.0, 0.0, 0.0, 0.0, 1.718470500478165E9, 0.0, 2024-06-15 11:55:00.478
27.0, 39907.45275109443, -123369.22417512229, 76629.31253067405, -187500.02235174447, -81921.87034152393, -187500.02235174447, -187500.02235174447, -23254.79963479038, -0.058, 0.98, 0.096, 192.0, 0.0, 0.0, 0.0, 0.0, 0.0, 0.0, 0.0, 0.0, 0.0, 1.7184705004781747E9, 0.0, 2024-06-15 11:55:00.478
28.0, 39807.13812197901, -124339.91573332736, 75958.49197608138, -187500.02235174447, -83148.86935339801, -187500.02235174447, -187500.02235174447, -25470.75158008952, -0.054, 0.976, 0.112, 192.0, 254.0, 80.0, 30.0, 128.0, 3.0, 128.0, 0.0, 0.0, 0.0, 1.7184705004781845E9, 0.0, 2024-06-15 11:55:00.478
29.0, 39624.971404668264, -122326.89527593796, 77225.36650006373, -187500.02235174447, -80378.97412526299, -187500.02235174447, -187500.02235174447, -19030.945781582093, -0.054, 0.976, 0.112, 192.0, 0.0, 0.0, 0.0, 0.0, 0.0, 0.0, 0.0, 0.0, 0.0, 1.718470500478194E9, 0.0, 2024-06-15 11:55:00.478
30.0, 39717.41821973541, -121131.68044467932, 77960.82829962115, -187500.02235174447, -78660.68377026127, -187500.02235174447, -187500.02235174447, -16535.351161402603, -0.054, 0.976, 0.112, 192.0, 0.0, 0.0, 0.0, 0.0, 0.0, 0.0, 0.0, 0.0, 0.0, 1.7184705004782035E9, 0.0, 2024-06-15 11:55:00.478
31.0, 39892.5664892872, -123649.31388489174, 75578.44526510779, -187500.02235174447, -82367.65353294057, -187500.02235174447, -187500.02235174447, -22354.426664641698, -0.054, 0.976, 0.112, 192.0, 0.0, 0.0, 0.0, 0.0, 0.0, 0.0, 0.0, 0.0, 0.0, 1.7184705004782133E9, 0.0, 2024-06-15 11:55:00.478
32.0, 39817.7999040842, -124946.51972609994, 74898.9745854109, -187500.02235174447, -84233.21953215833, -187500.02235174447, -187500.02235174447, -25338.853936058753, -0.054, 0.976, 0.112, 192.0, 0.0, 0.0, 0.0, 0.0, 0.0, 0.0, 0.0, 0.0, 0.0, 1.7184705004782228E9, 0.0, 2024-06-15 11:55:00.478
33.0, 39639.298872864114, -122595.76440999085, 77292.06410551837, -187500.02235174447, -80971.92120217338, -187500.02235174447, -187500.02235174447, -20015.29425564936, -0.054, 0.976, 0.112, 192.0, 0.0, 0.0, 0.0, 0.0, 0.0, 0.0, 0.0, 0.0, 0.0, 1.7184705004782324E9, 0.0, 2024-06-15 11:55:00.478
34.0, 39684.65056236393, -120728.11969853875, 78636.27566531608, -187500.02235174447, -78153.2991711258, -187500.02235174447, -187500.02235174447, -16200.96906435121, -0.054, 0.976, 0.112, 192.0, 0.0, 0.0, 0.0, 0.0, 0.0, 0.0, 0.0, 0.0, 0.0, 1.718470500478242E9, 0.0, 2024-06-15 11:55:00.478
35.0, 39874.0145413893, -123055.42803471423, 76113.07664073427, -187500.02235174447, -81579.44161646863, -187500.02235174447, -187500.02235174447, -21286.773238989503, -0.054, 0.976, 0.112, 192.0, 0.0, 0.0, 0.0, 0.0, 0.0, 0.0, 0.0, 0.0, 0.0, 1.7184705004782517E9, 0.0, 2024-06-15 11:55:00.478
36.0, 39867.7113494529, -124924.61501653375, 74849.04078829775, -187500.02235174447, -84240.26033166175, -187500.02235174447, -187500.02235174447, -25506.737888662567, -0.054, 0.976, 0.112, 192.0, 0.0, 0.0, 0.0, 0.0, 0.0, 0.0, 0.0, 0.0, 0.0, 1.7184705004782617E9, 0.0, 2024-06-15 11:55:00.478
37.0, 39696.966373558804, -123178.4296844518, 76765.85933755152, -187500.02235174447, -81874.43993978977, -187500.02235174447, -187500.02235174447, -21399.649548488804, -0.054, 0.976, 0.112, 192.0, 0.0, 0.0, 0.0, 0.0, 0.0, 0.0, 0.0, 0.0, 0.0, 1.7184705004782712E9, 0.0, 2024-06-15 11:55:00.478
38.0, 39664.48928886525, -120729.23728576151, 78776.42110305084, -187500.02235174447, -78209.89378808663, -187500.02235174447, -187500.02235174447, -16298.42267017635, -0.054, 0.976, 0.112, 192.0, 0.0, 0.0, 0.0, 0.0, 0.0, 0.0, 0.0, 0.0, 0.0, 1.7184705004782813E9, 0.0, 2024-06-15 11:55:00.478
39.0, 39876.584992001655, -122571.91509865703, 76570.92977415679, -187500.02235174447, -80922.00975680468, -187500.02235174447, -187500.02235174447, -20262.34808711387, -0.048, 0.976, 0.122, 192.0, 254.0, 128.0, 30.0, 128.0, 3.0, 208.0, 0.0, 0.0, 0.0, 1.7184705004782906E9, 0.0, 2024-06-15 11:55:00.478
40.0, 39912.70541104143, -124825.88736127465, 74882.61310846962, -187500.02235174447, -84153.53556317516, -187500.02235174447, -187500.02235174447, -25428.149155157706, -0.048, 0.976, 0.122, 192.0, 0.0, 0.0, 0.0, 0.0, 0.0, 0.0, 0.0, 0.0, 0.0, 1.7184705004783008E9, 0.0, 2024-06-15 11:55:00.478
41.0, 39745.44730728237, -123718.67134793656, 76250.80809006788, -187500.02235174447, -82718.33005169989, -187500.02235174447, -187500.02235174447, -22715.340282361543, -0.048, 0.976, 0.122, 192.0, 0.0, 0.0, 0.0, 0.0, 0.0, 0.0, 0.0, 0.0, 0.0, 1.7184705004783108E9, 0.0, 2024-06-15 11:55:00.478
42.0, 39646.13850666744, -120806.79783902143, 78794.7495335042, -187500.02235174447, -78439.13327922026, -187500.02235174447, -187500.02235174447, -16628.24501135886, -0.048, 0.976, 0.122, 192.0, 0.0, 0.0, 0.0, 0.0, 0.0, 0.0, 0.0, 0.0, 0.0, 1.7184705004783204E9, 0.0, 2024-06-15 11:55:00.478
43.0, 39854.70263417991, -121959.32083837043, 77130.86332450669, -187500.02235174447, -80131.1156309981, -187500.02235174447, -187500.02235174447, -19119.950428003125, -0.048, 0.976, 0.122, 192.0, 0.0, 0.0, 0.0, 0.0, 0.0, 0.0, 0.0, 0.0, 0.0, 1.7184705004783301E9, 0.0, 2024-06-15 11:55:00.478
44.0, 39926.60819609263, -124597.49723643032, 74972.42241769105, -187500.02235174447, -83901.8549206084, -187500.02235174447, -187500.02235174447, -25035.898391711522, -0.048, 0.976, 0.122, 192.0, 0.0, 0.0, 0.0, 0.0, 0.0, 0.0, 0.0, 0.0, 0.0, 1.71847050047834E9, 0.0, 2024-06-15 11:55:00.478
45.0, 39766.86027847055, -124206.7663916071, 75727.50904888022, -187500.02235174447, -83464.31952289576, -187500.02235174447, -187500.02235174447, -23909.30341593068, -0.048, 0.976, 0.122, 192.0, 0.0, 0.0, 0.0, 0.0, 0.0, 0.0, 0.0, 0.0, 0.0, 1.718470500478351E9, 0.0, 2024-06-15 11:55:00.478
46.0, 39637.95776819679, -121123.07502306403, 78577.02119076505, -187500.02235174447, -78992.33895448911, -187500.02235174447, -187500.02235174447, -17362.63392718243, -0.048, 0.976, 0.122, 192.0, 0.0, 0.0, 0.0, 0.0, 0.0, 0.0, 0.0, 0.0, 0.0, 1.718470500478361E9, 0.0, 2024-06-15 11:55:00.478
47.0, 39827.32174722216, -121492.90698682154, 77638.09146143097, -187500.02235174447, -79506.00439381652, -187500.02235174447, -187500.02235174447, -18199.5949983114, -0.048, 0.976, 0.122, 192.0, 0.0, 0.0, 0.0, 0.0, 0.0, 0.0, 0.0, 0.0, 0.0, 1.7184705004783704E9, 0.0, 2024-06-15 11:55:00.478
48.0, 39934.76658281882, -124268.01017141464, 75172.64934452169, -187500.02235174447, -83521.09295381224, -187500.02235174447, -187500.02235174447, -24414.83282027636, -0.048, 0.976, 0.122, 192.0, 0.0, 0.0, 0.0, 0.0, 0.0, 0.0, 0.0, 0.0, 0.0, 1.7184705004783802E9, 0.0, 2024-06-15 11:55:00.478
49.0, 39804.008877755274, -124541.32730261414, 75350.25630596356, -187500.02235174447, -84001.85662530144, -187500.02235174447, -187500.02235174447, -24844.880383596468, -0.044, 0.972, 0.132, 192.0, 254.0, 160.0, 30.0, 96.0, 4.0, 32.0, 0.0, 0.0, 0.0, 1.71847050047839E9, 0.0, 2024-06-15 11:55:00.478
50.0, 39654.45335560481, -121607.81730506627, 78168.52070909986, -187500.02235174447, -79781.84727213946, -187500.02235174447, -187500.02235174447, -18411.578942725533, -0.044, 0.972, 0.132, 192.0, 0.0, 0.0, 0.0, 0.0, 0.0, 0.0, 0.0, 0.0, 0.0, 1.7184705004783995E9, 0.0, 2024-06-15 11:55:00.478
51.0, 39785.12165369054, -121131.68044467932, 78062.70755084844, -187500.02235174447, -79025.3077775607, -187500.02235174447, -187500.02235174447, -17481.83578036258, -0.044, 0.972, 0.132, 192.0, 0.0, 0.0, 0.0, 0.0, 0.0, 0.0, 0.0, 0.0, 0.0, 1.7184705004784093E9, 0.0, 2024-06-15 11:55:00.478
52.0, 39950.52456265981, -123891.78560874291, 75447.59815306641, -187500.02235174447, -83056.31077960858, -187500.02235174447, -187500.02235174447, -23618.797793245056, -0.044, 0.972, 0.132, 192.0, 0.0, 0.0, 0.0, 0.0, 0.0, 0.0, 0.0, 0.0, 0.0, 1.7184705004784226E9, 0.0, 2024-06-15 11:55:00.478
53.0, 39863.151593584014, -124817.59486408174, 75077.81089279782, -187500.02235174447, -84420.10246754915, -187500.02235174447, -187500.02235174447, -25578.576395341923, -0.044, 0.972, 0.132, 192.0, 0.0, 0.0, 0.0, 0.0, 0.0, 0.0, 0.0, 0.0, 0.0, 1.718470500478433E9, 0.0, 2024-06-15 11:55:00.478
54.0, 39683.04123676315, -122173.67406769683, 77706.37604074193, -187500.02235174447, -80682.39905624378, -187500.02235174447, -187500.02235174447, -19658.78393158721, -0.044, 0.972, 0.132, 192.0, 0.0, 0.0, 0.0, 0.0, 0.0, 0.0, 0.0, 0.0, 0.0, 1.7184705004784427E9, 0.0, 2024-06-15 11:55:00.478
55.0, 39753.49393528628, -120851.81425235442, 78470.11279703531, -187500.02235174447, -78675.01123845711, -187500.02235174447, -187500.02235174447, -16986.722288933073, -0.044, 0.972, 0.132, 192.0, 0.0, 0.0, 0.0, 0.0, 0.0, 0.0, 0.0, 0.0, 0.0, 1.7184705004784524E9, 0.0, 2024-06-15 11:55:00.478
56.0, 39942.74615558936, -123441.7332341353, 75836.20558216638, -187500.02235174447, -82477.31119123832, -187500.02235174447, -187500.02235174447, -22664.646525936907, -0.044, 0.972, 0.132, 192.0, 0.0, 0.0, 0.0, 0.0, 0.0, 0.0, 0.0, 0.0, 0.0, 1.7184705004784627E9, 0.0, 2024-06-15 11:55:00.478
57.0, 39890.95716368642, -124937.06493819536, 74967.81795833325, -187500.02235174447, -84619.10004843475, -187500.02235174447, -187500.02235174447, -25993.983566043804, -0.044, 0.972, 0.132, 192.0, 0.0, 0.0, 0.0, 0.0, 0.0, 0.0, 0.0, 0.0, 0.0, 1.7184705004784725E9, 0.0, 2024-06-15 11:55:00.478
58.0, 39692.294858967645, -122724.10812665321, 77264.61616332724, -187500.02235174447, -81571.1044157868, -187500.02235174447, -187500.02235174447, -20966.405685711587, -0.044, 0.972, 0.132, 192.0, 0.0, 0.0, 0.0, 0.0, 0.0, 0.0, 0.0, 0.0, 0.0, 1.7184705004784825E9, 0.0, 2024-06-15 11:55:00.478
59.0, 39729.13053382999, -120659.56689829433, 78824.83498154105, -187500.02235174447, -78477.39946572775, -187500.02235174447, -187500.02235174447, -16743.892937170618, -0.044, 0.974, 0.126, 192.0, 254.0, 160.0, 30.0, 112.0, 3.0, 240.0, 0.0, 0.0, 0.0, 1.718470500478492E9, 0.0, 2024-06-15 11:55:00.478
60.0, 39917.48868435487, -122871.6519918027, 76356.42008261921, -187500.02235174447, -81740.48593526911, -187500.02235174447, -187500.02235174447, -21545.65114327087, -0.044, 0.974, 0.126, 192.0, 0.0, 0.0, 0.0, 0.0, 0.0, 0.0, 0.0, 0.0, 0.0, 1.7184705004785018E9, 0.0, 2024-06-15 11:55:00.478
61.0, 39914.42649536449, -124868.66860016211, 74954.31750468224, -187500.02235174447, -84583.62782998418, -187500.02235174447, -187500.02235174447, -26055.026180151246, -0.044, 0.974, 0.126, 192.0, 0.0, 0.0, 0.0, 0.0, 0.0, 0.0, 0.0, 0.0, 0.0, 1.7184705004785116E9, 0.0, 2024-06-15 11:55:00.478
62.0, 39758.500726044265, -123267.1437581949, 76753.29765716764, -187500.02235174447, -82440.05083323132, -187500.02235174447, -187500.02235174447, -22292.869960411783, -0.044, 0.974, 0.126, 192.0, 0.0, 0.0, 0.0, 0.0, 0.0, 0.0, 0.0, 0.0, 0.0, 1.7184705004785216E9, 0.0, 2024-06-15 11:55:00.478
63.0, 39713.372553989, -120690.56876785384, 78935.61022706154, -187500.02235174447, -78593.49442642862, -187500.02235174447, -187500.02235174447, -16902.63502629221, -0.044, 0.974, 0.126, 192.0, 0.0, 0.0, 0.0, 0.0, 0.0, 0.0, 0.0, 0.0, 0.0, 1.7184705004785316E9, 0.0, 2024-06-15 11:55:00.478
64.0, 39875.64621873453, -122367.39663689098, 76830.27706507171, -187500.02235174447, -81054.3320839801, -187500.02235174447, -187500.02235174447, -20490.090011368993, -0.044, 0.974, 0.126, 192.0, 0.0, 0.0, 0.0, 0.0, 0.0, 0.0, 0.0, 0.0, 0.0, 1.7184705004785414E9, 0.0, 2024-06-15 11:55:00.478
65.0, 39940.28746369928, -124761.0002471209, 74993.43305747904, -187500.02235174447, -84469.27630535082, -187500.02235174447, -187500.02235174447, -25907.54937023513, -0.044, 0.974, 0.126, 192.0, 0.0, 0.0, 0.0, 0.0, 0.0, 0.0, 0.0, 0.0, 0.0, 1.7184705004785511E9, 0.0, 2024-06-15 11:55:00.478
66.0, 39785.9933717243, -123880.05094290388, 76197.6332900087, -187500.02235174447, -83335.41701262201, -187500.02235174447, -187500.02235174447, -23661.422569921324, -0.044, 0.974, 0.126, 192.0, 0.0, 0.0, 0.0, 0.0, 0.0, 0.0, 0.0, 0.0, 0.0, 1.7184705004785607E9, 0.0, 2024-06-15 11:55:00.478
67.0, 39656.42030911688, -120914.98028218512, 78842.49285966074, -187500.02235174447, -78985.29815498569, -187500.02235174447, -187500.02235174447, -17424.436500601354, -0.044, 0.974, 0.126, 192.0, 0.0, 0.0, 0.0, 0.0, 0.0, 0.0, 0.0, 0.0, 0.0, 1.7184705004785705E9, 0.0, 2024-06-15 11:55:00.478
68.0, 39869.253619820316, -121857.68745633215, 77368.32825759986, -187500.02235174447, -80361.0703779543, -187500.02235174447, -187500.02235174447, -19473.71148749727, -0.044, 0.974, 0.126, 192.0, 0.0, 0.0, 0.0, 0.0, 0.0, 0.0, 0.0, 0.0, 0.0, 1.7184705004785805E9, 0.0, 2024-06-15 11:55:00.478
69.0, 39982.26403978634, -124514.92989241242, 75160.84762344928, -187500.02235174447, -84182.61518271151, -187500.02235174447, -187500.02235174447, -25469.74575158903, -0.042, 0.978, 0.138, 192.0, 254.0, 176.0, 30.0, 144.0, 4.0, 80.0, 0.0, 0.0, 0.0, 1.7184705004786124E9, 0.0, 2024-06-15 11:55:00.478
70.0, 39841.09042180663, -124327.08583201002, 75769.37386624502, -187500.02235174447, -84017.83812258698, -187500.02235174447, -187500.02235174447, -24799.61810107447, -0.042, 0.978, 0.138, 192.0, 0.0, 0.0, 0.0, 0.0, 0.0, 0.0, 0.0, 0.0, 0.0, 1.718470500478623E9, 0.0, 2024-06-15 11:55:00.478
71.0, 39685.54463214215, -121289.75198146726, 78611.62169118186, -187500.02235174447, -79607.34720317689, -187500.02235174447, -187500.02235174447, -18274.562749214503, -0.042, 0.978, 0.138, 192.0, 0.0, 0.0, 0.0, 0.0, 0.0, 0.0, 0.0, 0.0, 0.0, 1.7184705004786332E9, 0.0, 2024-06-15 11:55:00.478
72.0, 39823.79017159822, -121405.5563694902, 77883.40185682796, -187500.02235174447, -79748.05143452305, -187500.02235174447, -187500.02235174447, -18606.463802631355, -0.042, 0.978, 0.138, 192.0, 0.0, 0.0, 0.0, 0.0, 0.0, 0.0, 0.0, 0.0, 0.0, 1.7184705004786437E9, 0.0, 2024-06-15 11:55:00.478
73.0, 39957.56536216323, -124207.28048172957, 75352.96086704265, -187500.02235174447, -83802.4343612712, -187500.02235174447, -187500.02235174447, -24846.065026052598, -0.042, 0.978, 0.138, 192.0, 0.0, 0.0, 0.0, 0.0, 0.0, 0.0, 0.0, 0.0, 0.0, 1.718470500478654E9, 0.0, 2024-06-15 11:55:00.478
74.0, 39863.732738939856, -124660.21623137192, 75416.797449207, -187500.02235174447, -84524.70863159999, -187500.02235174447, -187500.02235174447, -25704.997861981137, -0.042, 0.978, 0.138, 192.0, 0.0, 0.0, 0.0, 0.0, 0.0, 0.0, 0.0, 0.0, 0.0, 1.7184705004786649E9, 0.0, 2024-06-15 11:55:00.478
75.0, 39690.685533366865, -121713.94338774007, 78258.59823925474, -187500.02235174447, -80333.89065669665, -187500.02235174447, -187500.02235174447, -19309.1579448173, -0.042, 0.978, 0.138, 192.0, 0.0, 0.0, 0.0, 0.0, 0.0, 0.0, 0.0, 0.0, 0.0, 1.7184705004786804E9, 0.0, 2024-06-15 11:55:00.478
76.0, 39799.31501141966, -121032.17047836429, 78332.15783025716, -187500.02235174447, -79258.74939665191, -187500.02235174447, -187500.02235174447, -17926.814308978835, -0.042, 0.978, 0.138, 192.0, 0.0, 0.0, 0.0, 0.0, 0.0, 0.0, 0.0, 0.0, 0.0, 1.7184705004787114E9, 0.0, 2024-06-15 11:55:00.478
77.0, 39979.96181010745, -123762.72663625797, 75671.45087378632, -187500.02235174447, -83252.13441278154, -187500.02235174447, -187500.02235174447, -23962.053532845206, -0.042, 0.978, 0.138, 192.0, 0.0, 0.0, 0.0, 0.0, 0.0, 0.0, 0.0, 0.0, 0.0, 1.718470500478742E9, 0.0, 2024-06-15 11:55:00.478
78.0, 39926.31762341471, -124801.88158772966, 75202.08659196933, -187500.02235174447, -84783.22890797007, -187500.02235174447, -187500.02235174447, -26252.928525558535, -0.042, 0.978, 0.138, 192.0, 0.0, 0.0, 0.0, 0.0, 0.0, 0.0, 0.0, 0.0, 0.0, 1.718470500478752E9, 0.0, 2024-06-15 11:55:00.478
79.0, 39731.29865304216, -122270.50182467722, 77744.68693073833, -187500.02235174447, -81223.69125171796, -187500.02235174447, -187500.02235174447, -20554.954773778292, -0.042, 0.978, 0.138, 192.0, 0.0, 0.0, 0.0, 0.0, 0.0, 0.0, 0.0, 0.0, 0.0, 1.7184705004787624E9, 0.0, 2024-06-15 11:55:00.478
80.0, 39769.16250814945, -120758.22749832005, 78691.30566016503, -187500.02235174447, -78922.69091876637, -187500.02235174447, -187500.02235174447, -17460.914547552413, -0.04, 0.978, 0.134, 192.0, 254.0, 192.0, 30.0, 144.0, 4.0, 48.0, 0.0, 0.0, 0.0, 1.7184705004787726E9, 0.0, 2024-06-15 11:55:00.478
81.0, 39973.09982455967, -123258.13600517942, 76066.02621865585, -187500.02235174447, -82600.08932353131, -187500.02235174447, -187500.02235174447, -22919.277598771765, -0.04, 0.978, 0.134, 192.0, 0.0, 0.0, 0.0, 0.0, 0.0, 0.0, 0.0, 0.0, 0.0, 1.718470500478783E9, 0.0, 2024-06-15 11:55:00.478
82.0, 39958.25826624135, -124957.36032216076, 74999.75860115989, -187500.02235174447, -85002.4101140988, -187500.02235174447, -187500.02235174447, -26648.219126250642, -0.04, 0.978, 0.134, 192.0, 0.0, 0.0, 0.0, 0.0, 0.0, 0.0, 0.0, 0.0, 0.0, 1.7184705004787931E9, 0.0, 2024-06-15 11:55:00.478
83.0, 39746.542542760675, -122883.61017508629, 77180.55125243083, -187500.02235174447, -82174.4450538689, -187500.02235174447, -187500.02235174447, -21928.938857190475, -0.04, 0.978, 0.134, 192.0, 0.0, 0.0, 0.0, 0.0, 0.0, 0.0, 0.0, 0.0, 0.0, 1.7184705004788032E9, 0.0, 2024-06-15 11:55:00.478
84.0, 39757.740766732786, -120656.0800261593, 78912.25265410575, -187500.02235174447, -78841.44232767134, -187500.02235174447, -187500.02235174447, -17349.84872935399, -0.04, 0.978, 0.134, 192.0, 0.0, 0.0, 0.0, 0.0, 0.0, 0.0, 0.0, 0.0, 0.0, 1.7184705004788136E9, 0.0, 2024-06-15 11:55:00.478
85.0, 39962.14746977657, -122756.20523169104, 76513.68695660675, -187500.02235174447, -81930.54281837259, -187500.02235174447, -187500.02235174447, -21862.062437780194, -0.04, 0.978, 0.134, 192.0, 0.0, 0.0, 0.0, 0.0, 0.0, 0.0, 0.0, 0.0, 0.0, 1.718470500478824E9, 0.0, 2024-06-15 11:55:00.478
86.0, 39983.04635084228, -124863.55005068185, 75005.19007506252, -187500.02235174447, -84932.42680220924, -187500.02235174447, -187500.02235174447, -26629.063681252443, -0.04, 0.978, 0.134, 192.0, 0.0, 0.0, 0.0, 0.0, 0.0, 0.0, 0.0, 0.0, 0.0, 1.7184705004788342E9, 0.0, 2024-06-15 11:55:00.478
87.0, 39801.32666842064, -123468.55532748168, 76627.21146669525, -187500.02235174447, -83077.67904730786, -187500.02235174447, -187500.02235174447, -23279.9453473026, -0.04, 0.978, 0.134, 192.0, 0.0, 0.0, 0.0, 0.0, 0.0, 0.0, 0.0, 0.0, 0.0, 1.7184705004788444E9, 0.0, 2024-06-15 11:55:00.478
88.0, 39723.87787388299, -120756.19348957462, 78941.17581143092, -187500.02235174447, -79051.59342904013, -187500.02235174447, -187500.02235174447, -17604.837430100135, -0.04, 0.978, 0.134, 192.0, 0.0, 0.0, 0.0, 0.0, 0.0, 0.0, 0.0, 0.0, 0.0, 1.7184705004788544E9, 0.0, 2024-06-15 11:55:00.478
89.0, 39936.219446208415, -122202.12783838843, 77026.79360232278, -187500.02235174447, -81196.44447522695, -187500.02235174447, -187500.02235174447, -20746.933906904927, -0.04, 0.978, 0.134, 192.0, 0.0, 0.0, 0.0, 0.0, 0.0, 0.0, 0.0, 0.0, 0.0, 1.7184705004788804E9, 0.0, 2024-06-15 11:55:00.478
90.0, 40001.30772606227, -124676.60006005765, 75068.0655322153, -187500.02235174447, -84735.39617483571, -187500.02235174447, -187500.02235174447, -26336.859325988215, -0.04, 0.976, 0.138, 192.0, 254.0, 192.0, 30.0, 128.0, 4.0, 80.0, 0.0, 0.0, 0.0, 1.71847050047889E9, 0.0, 2024-06-15 11:55:00.478
91.0, 39850.27698877776, -123977.86217664031, 76109.18743719906, -187500.02235174447, -83865.4439288907, -187500.02235174447, -187500.02235174447, -24510.1853621227, -0.04, 0.976, 0.138, 192.0, 0.0, 0.0, 0.0, 0.0, 0.0, 0.0, 0.0, 0.0, 0.0, 1.7184705004788997E9, 0.0, 2024-06-15 11:55:00.478
92.0, 39736.39485077797, -120976.49228292612, 78829.41708915438, -187500.02235174447, -79468.69933232061, -187500.02235174447, -187500.02235174447, -18145.92845987421, -0.04, 0.976, 0.138, 192.0, 0.0, 0.0, 0.0, 0.0, 0.0, 0.0, 0.0, 0.0, 0.0, 1.7184705004789095E9, 0.0, 2024-06-15 11:55:00.478
93.0, 39917.198111676946, -121714.2786639069, 77530.1995909452, -187500.02235174447, -80534.58697016085, -187500.02235174447, -187500.02235174447, -19745.732217518358, -0.04, 0.976, 0.138, 192.0, 0.0, 0.0, 0.0, 0.0, 0.0, 0.0, 0.0, 0.0, 0.0, 1.7184705004789193E9, 0.0, 2024-06-15 11:55:00.478
94.0, 40013.55648202378, -124458.13410975148, 75171.37529508774, -187500.02235174447, -84473.97017168644, -187500.02235174447, -187500.02235174447, -25861.236555723735, -0.04, 0.976, 0.138, 192.0, 0.0, 0.0, 0.0, 0.0, 0.0, 0.0, 0.0, 0.0, 0.0, 1.7184705004789293E9, 0.0, 2024-06-15 11:55:00.478
95.0, 39891.62771602008, -124436.34115890755, 75631.24008551122, -187500.02235174447, -84540.01957655187, -187500.02235174447, -187500.02235174447, -25588.72408732463, -0.04, 0.976, 0.138, 192.0, 0.0, 0.0, 0.0, 0.0, 0.0, 0.0, 0.0, 0.0, 0.0, 1.7184705004789424E9, 0.0, 2024-06-15 11:55:00.478
96.0, 39730.44928675285, -121358.37183694505, 78534.32935885541, -187500.02235174447, -80109.0097557318, -187500.02235174447, -187500.02235174447, -19003.363728924243, -0.04, 0.976, 0.138, 192.0, 0.0, 0.0, 0.0, 0.0, 0.0, 0.0, 0.0, 0.0, 0.0, 1.7184705004789524E9, 0.0, 2024-06-15 11:55:00.478
97.0, 39874.57333500068, -121303.8335804741, 77973.85936663859, -187500.02235174447, -79966.45032959584, -187500.02235174447, -187500.02235174447, -18903.138506786647, -0.04, 0.976, 0.138, 192.0, 0.0, 0.0, 0.0, 0.0, 0.0, 0.0, 0.0, 0.0, 0.0, 1.718470500478962E9, 0.0, 2024-06-15 11:55:00.478
98.0, 40018.58562452622, -124124.8472481784, 75367.06481779394, -187500.02235174447, -84054.00324511567, -187500.02235174447, -187500.02235174447, -25131.049767857763, -0.04, 0.976, 0.138, 192.0, 0.0, 0.0, 0.0, 0.0, 0.0, 0.0, 0.0, 0.0, 0.0, 1.718470500478972E9, 0.0, 2024-06-15 11:55:00.478
99.0, 39933.09020198467, -124771.25969782588, 75254.09910131682, -187500.02235174447, -85032.60732085793, -187500.02235174447, -187500.02235174447, -26413.525809469917, -0.04, 0.976, 0.138, 192.0, 0.0, 0.0, 0.0, 0.0, 0.0, 0.0, 0.0, 0.0, 0.0, 1.7184705004789817E9, 0.0, 2024-06-15 11:55:00.478
100.0, 39738.719432201324, -121907.39773600076, 78051.79989955424, -187500.02235174447, -80967.65201898242, -187500.02235174447, -187500.02235174447, -20149.784702036945, -0.042, 0.976, 0.14200000000000002, 192.0, 254.0, 176.0, 30.0, 128.0, 4.0, 112.0, 0.0, 0.0, 0.0, 1.718470500478992E9, 0.0, 2024-06-15 11:55:00.478
101.0, 39872.78519544425, -120961.6507246078, 78400.17418863466, -187500.02235174447, -79510.65355666322, -187500.02235174447, -187500.02235174447, -18244.6561151333, -0.042, 0.976, 0.14200000000000002, 192.0, 0.0, 0.0, 0.0, 0.0, 0.0, 0.0, 0.0, 0.0, 0.0, 1.718470500479002E9, 0.0, 2024-06-15 11:55:00.479
102.0, 40041.451459104, -123662.30024842027, 75711.63931031697, -187500.02235174447, -83464.2524676624, -187500.02235174447, -187500.02235174447, -24154.747921794406, -0.042, 0.976, 0.14200000000000002, 192.0, 0.0, 0.0, 0.0, 0.0, 0.0, 0.0, 0.0, 0.0, 0.0, 1.7184705004790115E9, 0.0, 2024-06-15 11:55:00.479
103.0, 39984.3874555096, -124905.70544072456, 75056.24145939844, -187500.02235174447, -85259.87985847949, -187500.02235174447, -187500.02235174447, -26861.387713120905, -0.042, 0.976, 0.14200000000000002, 192.0, 0.0, 0.0, 0.0, 0.0, 0.0, 0.0, 0.0, 0.0, 0.0, 1.7184705004790213E9, 0.0, 2024-06-15 11:55:00.479
104.0, 39790.32961014863, -122478.5071585783, 77525.75159379859, -187500.02235174447, -81867.30973330853, -187500.02235174447, -187500.02235174447, -21392.653452474293, -0.042, 0.976, 0.14200000000000002, 192.0, 0.0, 0.0, 0.0, 0.0, 0.0, 0.0, 0.0, 0.0, 0.0, 1.718470500479031E9, 0.0, 2024-06-15 11:55:00.479
105.0, 39825.24303498781, -120769.73864671454, 78690.56805259801, -187500.02235174447, -79268.67357119007, -187500.02235174447, -187500.02235174447, -17872.097238552244, -0.042, 0.976, 0.14200000000000002, 192.0, 0.0, 0.0, 0.0, 0.0, 0.0, 0.0, 0.0, 0.0, 0.0, 1.7184705004790409E9, 0.0, 2024-06-15 11:55:00.479
106.0, 40017.46803730346, -123181.76009437563, 76095.19524517003, -187500.02235174447, -82817.50474184808, -187500.02235174447, -187500.02235174447, -23087.47447579795, -0.042, 0.976, 0.14200000000000002, 192.0, 0.0, 0.0, 0.0, 0.0, 0.0, 0.0, 0.0, 0.0, 0.0, 1.718470500479051E9, 0.0, 2024-06-15 11:55:00.479
107.0, 40013.06474364576, -124968.6479531107, 74922.55567581125, -187500.02235174447, -85361.55794400668, -187500.02235174447, -187500.02235174447, -27064.319201030637, -0.042, 0.976, 0.14200000000000002, 192.0, 0.0, 0.0, 0.0, 0.0, 0.0, 0.0, 0.0, 0.0, 0.0, 1.7184705004790611E9, 0.0, 2024-06-15 11:55:00.479
108.0, 39832.90968333599, -123061.30654350598, 76980.05610466673, -187500.02235174447, -82771.46014827015, -187500.02235174447, -187500.02235174447, -22680.426857522354, -0.042, 0.976, 0.14200000000000002, 192.0, 0.0, 0.0, 0.0, 0.0, 0.0, 0.0, 0.0, 0.0, 0.0, 1.718470500479071E9, 0.0, 2024-06-15 11:55:00.479
109.0, 39812.27902320374, -120678.25295665897, 78893.7230579523, -187500.02235174447, -79209.24028268341, -187500.02235174447, -187500.02235174447, -17754.482359228416, -0.042, 0.976, 0.14200000000000002, 192.0, 0.0, 0.0, 0.0, 0.0, 0.0, 0.0, 0.0, 0.0, 0.0, 1.718470500479081E9, 0.0, 2024-06-15 11:55:00.479
110.0, 40010.15901686657, -122599.69831701498, 76602.62454779442, -187500.02235174447, -82050.95166575332, -187500.02235174447, -187500.02235174447, -21877.216920520892, -0.042, 0.974, 0.136, 192.0, 254.0, 176.0, 30.0, 112.0, 4.0, 64.0, 0.0, 0.0, 0.0, 1.7184705004791117E9, 0.0, 2024-06-15 11:55:00.479
111.0, 40029.91795896506, -124800.76400050688, 74959.23488846242, -187500.02235174447, -85196.3562007375, -187500.02235174447, -187500.02235174447, -26846.36734084694, -0.042, 0.974, 0.136, 192.0, 0.0, 0.0, 0.0, 0.0, 0.0, 0.0, 0.0, 0.0, 0.0, 1.718470500479123E9, 0.0, 2024-06-15 11:55:00.479
112.0, 39868.22543957537, -123578.8164828797, 76437.40045278078, -187500.02235174447, -83584.43779759858, -187500.02235174447, -187500.02235174447, -23875.97696494782, -0.042, 0.974, 0.136, 192.0, 0.0, 0.0, 0.0, 0.0, 0.0, 0.0, 0.0, 0.0, 0.0, 1.7184705004791334E9, 0.0, 2024-06-15 11:55:00.479
113.0, 39799.24795618629, -120791.755115003, 78879.86497639, -187500.02235174447, -79441.83253548534, -187500.02235174447, -187500.02235174447, -17988.88510333122, -0.042, 0.974, 0.136, 192.0, 0.0, 0.0, 0.0, 0.0, 0.0, 0.0, 0.0, 0.0, 0.0, 1.7184705004791439E9, 0.0, 2024-06-15 11:55:00.479
114.0, 39991.83058641322, -122090.05619168952, 77098.0509636463, -187500.02235174447, -81343.67541595404, -187500.02235174447, -187500.02235174447, -20740.876584157537, -0.042, 0.974, 0.136, 192.0, 0.0, 0.0, 0.0, 0.0, 0.0, 0.0, 0.0, 0.0, 0.0, 1.7184705004791536E9, 0.0, 2024-06-15 11:55:00.479
115.0, 40058.93052326805, -124647.43103354349, 75024.83725843874, -187500.02235174447, -85007.8639397459, -187500.02235174447, -187500.02235174447, -26470.701571786594, -0.042, 0.974, 0.136, 192.0, 0.0, 0.0, 0.0, 0.0, 0.0, 0.0, 0.0, 0.0, 0.0, 1.71847050047918E9, 0.0, 2024-06-15 11:55:00.479
116.0, 39911.118437185105, -124082.33423022441, 75951.74174925587, -187500.02235174447, -84335.50111478582, -187500.02235174447, -187500.02235174447, -24995.642899947514, -0.042, 0.974, 0.136, 192.0, 0.0, 0.0, 0.0, 0.0, 0.0, 0.0, 0.0, 0.0, 0.0, 1.71847050047919E9, 0.0, 2024-06-15 11:55:00.479
117.0, 39784.786377523706, -121036.8643446999, 78740.81477413354, -187500.02235174447, -79885.78288385665, -187500.02235174447, -187500.02235174447, -18523.4717754688, -0.042, 0.974, 0.136, 192.0, 0.0, 0.0, 0.0, 0.0, 0.0, 0.0, 0.0, 0.0, 0.0, 1.7184705004792004E9, 0.0, 2024-06-15 11:55:00.479
118.0, 39955.46429818443, -121540.87383042263, 77653.15653719385, -187500.02235174447, -80603.34093610536, -187500.02235174447, -187500.02235174447, -19624.183431170397, -0.042, 0.974, 0.136, 192.0, 0.0, 0.0, 0.0, 0.0, 0.0, 0.0, 0.0, 0.0, 0.0, 1.7184705004792101E9, 0.0, 2024-06-15 11:55:00.479
119.0, 40057.32119766727, -124292.91001473785, 75233.17786850665, -187500.02235174447, -84577.10112060323, -187500.02235174447, -187500.02235174447, -25745.208650256238, -0.042, 0.974, 0.136, 192.0, 0.0, 0.0, 0.0, 0.0, 0.0, 0.0, 0.0, 0.0, 0.0, 1.71847050047922E9, 0.0, 2024-06-15 11:55:00.479
120.0, 39949.18345799249, -124421.14197267796, 75571.29270688209, -187500.02235174447, -84855.26858034953, -187500.02235174447, -187500.02235174447, -25842.46109038128, -0.042, 0.974, 0.136, 192.0, 0.0, 0.0, 0.0, 0.0, 0.0, 0.0, 0.0, 0.0, 0.0, 1.71847050047923E9, 0.0, 2024-06-15 11:55:00.479
121.0, 39793.660020072464, -121410.94313990393, 78444.07301474489, -187500.02235174447, -80511.74348732752, -187500.02235174447, -187500.02235174447, -19325.899401414325, -0.042, 0.976, 0.14200000000000002, 192.0, 254.0, 176.0, 30.0, 128.0, 4.0, 112.0, 0.0, 0.0, 0.0, 1.7184705009571843E9, 0.0, 2024-06-15 11:55:00.957
122.0, 39914.91823374251, -121105.55125541106, 78137.63059826262, -187500.02235174447, -79996.04403925467, -187500.02235174447, -187500.02235174447, -18708.52186781429, -0.042, 0.976, 0.14200000000000002, 192.0, 0.0, 0.0, 0.0, 0.0, 0.0, 0.0, 0.0, 0.0, 0.0, 1.7184705009573665E9, 0.0, 2024-06-15 11:55:00.957
123.0, 40063.9596657705, -123929.26948419446, 75487.63012738587, -187500.02235174447, -84090.19071938882, -187500.02235174447, -187500.02235174447, -24872.462436254318, -0.042, 0.976, 0.14200000000000002, 192.0, 0.0, 0.0, 0.0, 0.0, 0.0, 0.0, 0.0, 0.0, 0.0, 1.7184705009573984E9, 0.0, 2024-06-15 11:55:00.957
124.0, 39983.42633049802, -124753.51241272836, 75233.17786850665, -187500.02235174447, -85301.94584154438, -187500.02235174447, -187500.02235174447, -26533.577028939373, -0.042, 0.976, 0.14200000000000002, 192.0, 0.0, 0.0, 0.0, 0.0, 0.0, 0.0, 0.0, 0.0, 0.0, 1.7184705009574213E9, 0.0, 2024-06-15 11:55:00.957
125.0, 39803.047752743696, -121978.65509732427, 77979.71552368588, -187500.02235174447, -81372.57622153476, -187500.02235174447, -187500.02235174447, -20419.503202379132, -0.042, 0.976, 0.14200000000000002, 192.0, 0.0, 0.0, 0.0, 0.0, 0.0, 0.0, 0.0, 0.0, 0.0, 1.7184705009574432E9, 0.0, 2024-06-15 11:55:00.957
126.0, 39874.14865185603, -120802.72982153056, 78559.94445800119, -187500.02235174447, -79569.2821823695, -187500.02235174447, -187500.02235174447, -18026.659551460692, -0.042, 0.976, 0.14200000000000002, 192.0, 0.0, 0.0, 0.0, 0.0, 0.0, 0.0, 0.0, 0.0, 0.0, 1.7184705009574635E9, 0.0, 2024-06-15 11:55:00.957
127.0, 40060.852773291204, -123428.59040839558, 75896.37647824007, -187500.02235174447, -83419.61603398515, -187500.02235174447, -187500.02235174447, -23735.74212023522, -0.042, 0.976, 0.14200000000000002, 192.0, 0.0, 0.0, 0.0, 0.0, 0.0, 0.0, 0.0, 0.0, 0.0, 1.7184705009574835E9, 0.0, 2024-06-15 11:55:00.957
128.0, 40022.340717594714, -124828.65897758711, 75106.62229140071, -187500.02235174447, -85421.8629505471, -187500.02235174447, -187500.02235174447, -26768.650325375835, -0.042, 0.976, 0.14200000000000002, 192.0, 0.0, 0.0, 0.0, 0.0, 0.0, 0.0, 0.0, 0.0, 0.0, 1.7184705009575038E9, 0.0, 2024-06-15 11:55:00.957
129.0, 39828.908721078486, -122509.03964150425, 77497.67780276273, -187500.02235174447, -82196.99796402431, -187500.02235174447, -187500.02235174447, -21517.93498014629, -0.042, 0.976, 0.14200000000000002, 192.0, 0.0, 0.0, 0.0, 0.0, 0.0, 0.0, 0.0, 0.0, 0.0, 1.7184705009575243E9, 0.0, 2024-06-15 11:55:00.957
130.0, 39844.51023870829, -120602.34643248875, 78876.02047634369, -187500.02235174447, -79303.81051347381, -187500.02235174447, -187500.02235174447, -17564.648993569495, -0.042, 0.976, 0.14200000000000002, 192.0, 0.0, 0.0, 0.0, 0.0, 0.0, 0.0, 0.0, 0.0, 0.0, 1.7184705009575436E9, 0.0, 2024-06-15 11:55:00.957
131.0, 40032.86838923316, -122885.66653557618, 76358.61055357583, -187500.02235174447, -82670.8102429879, -187500.02235174447, -187500.02235174447, -22475.327250400456, -0.036000000000000004, 0.974, 0.138, 192.0, 254.0, 224.0, 30.0, 112.0, 4.0, 80.0, 0.0, 0.0, 0.0, 1.7184705009575632E9, 0.0, 2024-06-15 11:55:00.957
132.0, 40026.58754904122, -124816.03024196986, 75049.80415699532, -187500.02235174447, -85405.38971488354, -187500.02235174447, -187500.02235174447, -26732.284037147052, -0.036000000000000004, 0.974, 0.138, 192.0, 0.0, 0.0, 0.0, 0.0, 0.0, 0.0, 0.0, 0.0, 0.0, 1.7184705009575825E9, 0.0, 2024-06-15 11:55:00.957
133.0, 39839.14582003901, -123106.70293649471, 76954.68687470995, -187500.02235174447, -83074.37098912848, -187500.02235174447, -187500.02235174447, -22699.358785075998, -0.036000000000000004, 0.974, 0.138, 192.0, 0.0, 0.0, 0.0, 0.0, 0.0, 0.0, 0.0, 0.0, 0.0, 1.7184705009576015E9, 0.0, 2024-06-15 11:55:00.957
134.0, 39797.660982329966, -120583.2580427239, 79030.56043750768, -187500.02235174447, -79291.27118483439, -187500.02235174447, -187500.02235174447, -17431.20907917131, -0.036000000000000004, 0.974, 0.138, 192.0, 0.0, 0.0, 0.0, 0.0, 0.0, 0.0, 0.0, 0.0, 0.0, 1.7184705009576216E9, 0.0, 2024-06-15 11:55:00.957
135.0, 39999.96662139495, -122329.64454050596, 76869.83965275761, -187500.02235174447, -81870.03664613208, -187500.02235174447, -187500.02235174447, -21154.070932158345, -0.036000000000000004, 0.974, 0.138, 192.0, 0.0, 0.0, 0.0, 0.0, 0.0, 0.0, 0.0, 0.0, 0.0, 1.7184705009576592E9, 0.0, 2024-06-15 11:55:00.957
136.0, 40042.72550853795, -124685.20548167295, 75084.29289868986, -187500.02235174447, -85208.24732878774, -187500.02235174447, -187500.02235174447, -26358.205241943033, -0.036000000000000004, 0.974, 0.138, 192.0, 0.0, 0.0, 0.0, 0.0, 0.0, 0.0, 0.0, 0.0, 0.0, 1.7184705009576955E9, 0.0, 2024-06-15 11:55:00.957
137.0, 39881.65883799301, -123615.29452983076, 76446.38585405181, -187500.02235174447, -83804.60248048336, -187500.02235174447, -187500.02235174447, -23716.02788162564, -0.036000000000000004, 0.974, 0.138, 192.0, 0.0, 0.0, 0.0, 0.0, 0.0, 0.0, 0.0, 0.0, 0.0, 1.7184705009577153E9, 0.0, 2024-06-15 11:55:00.957
138.0, 39783.91465948995, -120697.90014003518, 79008.2981000302, -187500.02235174447, -79485.01610577299, -187500.02235174447, -187500.02235174447, -17557.04940045469, -0.036000000000000004, 0.974, 0.138, 192.0, 0.0, 0.0, 0.0, 0.0, 0.0, 0.0, 0.0, 0.0, 0.0, 1.71847050095775E9, 0.0, 2024-06-15 11:55:00.957
139.0, 39976.7878623948, -121791.10160959979, 77380.30879262791, -187500.02235174447, -81070.02300858773, -187500.02235174447, -187500.02235174447, -19841.06240762024, -0.036000000000000004, 0.974, 0.138, 192.0, 0.0, 0.0, 0.0, 0.0, 0.0, 0.0, 0.0, 0.0, 0.0, 1.71847050095777E9, 0.0, 2024-06-15 11:55:00.957
140.0, 40052.44851737601, -124439.0233682422, 75184.13814117172, -187500.02235174447, -84852.56401927043, -187500.02235174447, -187500.02235174447, -25687.161169905805, -0.036000000000000004, 0.974, 0.138, 192.0, 0.0, 0.0, 0.0, 0.0, 0.0, 0.0, 0.0, 0.0, 0.0, 1.7184705009578085E9, 0.0, 2024-06-15 11:55:00.957
141.0, 39920.72968730089, -124081.95425056867, 75947.94195269847, -187500.02235174447, -84439.50378173635, -187500.02235174447, -187500.02235174447, -24610.29882553802, -0.042, 0.974, 0.134, 192.0, 254.0, 176.0, 30.0, 112.0, 4.0, 48.0, 0.0, 0.0, 0.0, 1.7184705009578278E9, 0.0, 2024-06-15 11:55:00.957
142.0, 39773.65520878496, -120989.67981215476, 78793.09550441451, -187500.02235174447, -79923.64673896393, -187500.02235174447, -187500.02235174447, -17998.026966813442, -0.042, 0.974, 0.134, 192.0, 0.0, 0.0, 0.0, 0.0, 0.0, 0.0, 0.0, 0.0, 0.0, 1.718470500957847E9, 0.0, 2024-06-15 11:55:00.957
143.0, 39940.131001488095, -121310.49440032178, 77867.91209792043, -187500.02235174447, -80327.94509267154, -187500.02235174447, -187500.02235174447, -18630.20135524289, -0.042, 0.974, 0.134, 192.0, 0.0, 0.0, 0.0, 0.0, 0.0, 0.0, 0.0, 0.0, 0.0, 1.718470500957867E9, 0.0, 2024-06-15 11:55:00.957
144.0, 40060.204572702, -124106.76468691406, 75367.02011430504, -187500.02235174447, -84355.0141876953, -187500.02235174447, -187500.02235174447, -24757.485062776217, -0.042, 0.974, 0.134, 192.0, 0.0, 0.0, 0.0, 0.0, 0.0, 0.0, 0.0, 0.0, 0.0, 1.7184705009578865E9, 0.0, 2024-06-15 11:55:00.957
145.0, 39959.30879823075, -124384.84273968253, 75578.37820987443, -187500.02235174447, -84826.85951314683, -187500.02235174447, -187500.02235174447, -25192.51706510986, -0.042, 0.974, 0.134, 192.0, 0.0, 0.0, 0.0, 0.0, 0.0, 0.0, 0.0, 0.0, 0.0, 1.718470500957906E9, 0.0, 2024-06-15 11:55:00.957
146.0, 39786.26159265776, -121401.22013106587, 78431.13135470526, -187500.02235174447, -80521.98058628805, -187500.02235174447, -187500.02235174447, -18675.977727887363, -0.042, 0.974, 0.134, 192.0, 0.0, 0.0, 0.0, 0.0, 0.0, 0.0, 0.0, 0.0, 0.0, 1.718470500957925E9, 0.0, 2024-06-15 11:55:00.957
147.0, 39902.33420161417, -120864.64415367176, 78342.03730130641, -187500.02235174447, -79639.1984390257, -187500.02235174447, -187500.02235174447, -17539.212708379353, -0.042, 0.974, 0.134, 192.0, 0.0, 0.0, 0.0, 0.0, 0.0, 0.0, 0.0, 0.0, 0.0, 1.7184705009579444E9, 0.0, 2024-06-15 11:55:00.957
148.0, 40056.516534866874, -123623.89995144606, 75670.66856273038, -187500.02235174447, -83650.46485071955, -187500.02235174447, -187500.02235174447, -23548.210984255194, -0.042, 0.974, 0.134, 192.0, 0.0, 0.0, 0.0, 0.0, 0.0, 0.0, 0.0, 0.0, 0.0, 1.718470500957964E9, 0.0, 2024-06-15 11:55:00.957
149.0, 39987.56140322225, -124580.84518681112, 75271.35464803633, -187500.02235174447, -85034.10488773644, -187500.02235174447, -187500.02235174447, -25519.813659168918, -0.042, 0.974, 0.134, 192.0, 0.0, 0.0, 0.0, 0.0, 0.0, 0.0, 0.0, 0.0, 0.0, 1.7184705009579833E9, 0.0, 2024-06-15 11:55:00.957
150.0, 39809.26153770227, -121921.74755594107, 77913.50965660925, -187500.02235174447, -81250.75921425334, -187500.02235174447, -187500.02235174447, -19573.132046834475, -0.042, 0.974, 0.134, 192.0, 0.0, 0.0, 0.0, 0.0, 0.0, 0.0, 0.0, 0.0, 0.0, 1.7184705009580023E9, 0.0, 2024-06-15 11:55:00.958
151.0, 39868.00192213082, -120542.46610909297, 78688.44463687476, -187500.02235174447, -79114.0218513038, -187500.02235174447, -187500.02235174447, -16707.146669286092, -0.066, 0.974, 0.096, 192.0, 253.0, 240.0, 30.0, 112.0, 3.0, 0.0, 0.0, 0.0, 0.0, 1.7184705009580228E9, 0.0, 2024-06-15 11:55:00.958
152.0, 40048.492258607424, -123082.76421818307, 76028.7435089044, -187500.02235174447, -82831.8992652773, -187500.02235174447, -187500.02235174447, -22195.706927264564, -0.066, 0.974, 0.096, 192.0, 0.0, 0.0, 0.0, 0.0, 0.0, 0.0, 0.0, 0.0, 0.0, 1.718470500958041E9, 0.0, 2024-06-15 11:55:00.958
153.0, 40021.156075138584, -124633.37178628109, 75070.21129968301, -187500.02235174447, -85024.82891378748, -187500.02235174447, -187500.02235174447, -25557.54340380948, -0.066, 0.974, 0.096, 192.0, 0.0, 0.0, 0.0, 0.0, 0.0, 0.0, 0.0, 0.0, 0.0, 1.7184705009580593E9, 0.0, 2024-06-15 11:55:00.958
154.0, 39830.94272982392, -122463.64324851552, 77337.751071185, -187500.02235174447, -81991.07134235757, -187500.02235174447, -187500.02235174447, -20575.29486123262, -0.066, 0.974, 0.096, 192.0, 0.0, 0.0, 0.0, 0.0, 0.0, 0.0, 0.0, 0.0, 0.0, 1.718470500958078E9, 0.0, 2024-06-15 11:55:00.958
155.0, 39834.2507880033, -120377.19731059043, 78897.3216888096, -187500.02235174447, -78805.63483305393, -187500.02235174447, -187500.02235174447, -16217.285837803583, -0.066, 0.974, 0.096, 192.0, 0.0, 0.0, 0.0, 0.0, 0.0, 0.0, 0.0, 0.0, 0.0, 1.7184705009580972E9, 0.0, 2024-06-15 11:55:00.958
156.0, 40027.861598475174, -122568.78585443328, 76410.86893211234, -187500.02235174447, -81995.45228427081, -187500.02235174447, -187500.02235174447, -20848.164957543013, -0.066, 0.974, 0.096, 192.0, 0.0, 0.0, 0.0, 0.0, 0.0, 0.0, 0.0, 0.0, 0.0, 1.718470500958117E9, 0.0, 2024-06-15 11:55:00.958
157.0, 40028.66626127556, -124597.51958817478, 74968.46615892246, -187500.02235174447, -84855.73796698308, -187500.02235174447, -187500.02235174447, -25338.87628780321, -0.066, 0.974, 0.096, 192.0, 0.0, 0.0, 0.0, 0.0, 0.0, 0.0, 0.0, 0.0, 0.0, 1.7184705009581375E9, 0.0, 2024-06-15 11:55:00.958
158.0, 39852.5568667122, -123037.36782519435, 76737.07029069308, -187500.02235174447, -82719.38058368929, -187500.02235174447, -187500.02235174447, -21620.551838940602, -0.066, 0.974, 0.096, 192.0, 0.0, 0.0, 0.0, 0.0, 0.0, 0.0, 0.0, 0.0, 0.0, 1.718470500958158E9, 0.0, 2024-06-15 11:55:00.958
159.0, 39791.78247353822, -120418.1233546881, 78929.88818048098, -187500.02235174447, -78763.23357382222, -187500.02235174447, -187500.02235174447, -16089.813839174967, -0.066, 0.974, 0.096, 192.0, 0.0, 0.0, 0.0, 0.0, 0.0, 0.0, 0.0, 0.0, 0.0, 1.718470500958178E9, 0.0, 2024-06-15 11:55:00.958
160.0, 39988.47782474492, -122012.51799017406, 76880.23321392933, -187500.02235174447, -81081.91413663795, -187500.02235174447, -187500.02235174447, -19454.354876798974, -0.066, 0.974, 0.096, 192.0, 0.0, 0.0, 0.0, 0.0, 0.0, 0.0, 0.0, 0.0, 0.0, 1.7184705009581976E9, 0.0, 2024-06-15 11:55:00.958
161.0, 40041.31734863727, -124430.46265011582, 74981.20665326198, -187500.02235174447, -84506.49195986892, -187500.02235174447, -187500.02235174447, -24827.49072641024, -0.066, 0.974, 0.096, 192.0, 0.0, 0.0, 0.0, 0.0, 0.0, 0.0, 0.0, 0.0, 0.0, 1.7184705009582162E9, 0.0, 2024-06-15 11:55:00.958
162.0, 39887.917326440496, -123529.19561018892, 76196.8286272083, -187500.02235174447, -83320.48604732586, -187500.02235174447, -187500.02235174447, -22567.572899767507, -0.046, 0.98, 0.128, 192.0, 254.0, 144.0, 30.0, 160.0, 4.0, 0.0, 0.0, 0.0, 0.0, 1.7184705009582355E9, 0.0, 2024-06-15 11:55:00.958
163.0, 39774.77279600773, -120527.08810890772, 78861.02245581418, -187500.02235174447, -78870.94663035234, -187500.02235174447, -187500.02235174447, -16214.581276724492, -0.046, 0.98, 0.128, 192.0, 0.0, 0.0, 0.0, 0.0, 0.0, 0.0, 0.0, 0.0, 0.0, 1.718470500958253E9, 0.0, 2024-06-15 11:55:00.958
164.0, 39967.891868101586, -121458.0159137268, 77367.12126339928, -187500.02235174447, -80164.4197302365, -187500.02235174447, -187500.02235174447, -18102.789593075468, -0.046, 0.98, 0.128, 192.0, 0.0, 0.0, 0.0, 0.0, 0.0, 0.0, 0.0, 0.0, 0.0, 1.7184705009582708E9, 0.0, 2024-06-15 11:55:00.958
165.0, 40060.517497124376, -124178.93846976025, 75061.44941585654, -187500.02235174447, -84030.80213437106, -187500.02235174447, -187500.02235174447, -24075.75685688935, -0.046, 0.98, 0.128, 192.0, 0.0, 0.0, 0.0, 0.0, 0.0, 0.0, 0.0, 0.0, 0.0, 1.7184705009582896E9, 0.0, 2024-06-15 11:55:00.958
166.0, 39927.681079826485, -124001.28680482946, 75674.75893196571, -187500.02235174447, -83844.61210305836, -187500.02235174447, -187500.02235174447, -23404.64572961876, -0.046, 0.98, 0.128, 192.0, 0.0, 0.0, 0.0, 0.0, 0.0, 0.0, 0.0, 0.0, 0.0, 1.7184705009583087E9, 0.0, 2024-06-15 11:55:00.958
167.0, 39767.97786569332, -120941.22123017565, 78538.01739669054, -187500.02235174447, -79354.39251117618, -187500.02235174447, -187500.02235174447, -16791.27863541587, -0.046, 0.98, 0.128, 192.0, 0.0, 0.0, 0.0, 0.0, 0.0, 0.0, 0.0, 0.0, 0.0, 1.7184705009583273E9, 0.0, 2024-06-15 11:55:00.958
168.0, 39917.48868435487, -121012.07626009897, 77853.0258361132, -187500.02235174447, -79368.6305723942, -187500.02235174447, -187500.02235174447, -16924.15975620267, -0.046, 0.98, 0.128, 192.0, 0.0, 0.0, 0.0, 0.0, 0.0, 0.0, 0.0, 0.0, 0.0, 1.7184705009583457E9, 0.0, 2024-06-15 11:55:00.958
169.0, 40053.34258715422, -123805.06084025632, 75290.64420350126, -187500.02235174447, -83385.4849202019, -187500.02235174447, -187500.02235174447, -23042.055731064767, -0.046, 0.98, 0.128, 192.0, 0.0, 0.0, 0.0, 0.0, 0.0, 0.0, 0.0, 0.0, 0.0, 1.7184705009583638E9, 0.0, 2024-06-15 11:55:00.958
170.0, 39955.46429818443, -124316.53580862712, 75306.89392172026, -187500.02235174447, -84139.69983335731, -187500.02235174447, -187500.02235174447, -23944.17213728096, -0.046, 0.98, 0.128, 192.0, 0.0, 0.0, 0.0, 0.0, 0.0, 0.0, 0.0, 0.0, 0.0, 1.7184705009583826E9, 0.0, 2024-06-15 11:55:00.958
171.0, 39777.05267394217, -121394.51460772927, 78142.48092680943, -187500.02235174447, -79920.9198261404, -187500.02235174447, -187500.02235174447, -17529.199126863376, -0.046, 0.98, 0.128, 192.0, 0.0, 0.0, 0.0, 0.0, 0.0, 0.0, 0.0, 0.0, 0.0, 1.7184705009584012E9, 0.0, 2024-06-15 11:55:00.958
172.0, 39883.290515338245, -120653.91190694713, 78278.26777437542, -187500.02235174447, -78696.49126487867, -187500.02235174447, -187500.02235174447, -15941.957049603112, -0.042, 0.978, 0.132, 192.0, 254.0, 176.0, 30.0, 144.0, 4.0, 32.0, 0.0, 0.0, 0.0, 1.7184705009584208E9, 0.0, 2024-06-15 11:55:00.958
173.0, 40047.26291266238, -123369.8723757115, 75598.85240779548, -187500.02235174447, -82638.60137922781, -187500.02235174447, -187500.02235174447, -21844.6057253606, -0.042, 0.978, 0.132, 192.0, 0.0, 0.0, 0.0, 0.0, 0.0, 0.0, 0.0, 0.0, 0.0, 1.7184705009584556E9, 0.0, 2024-06-15 11:55:00.958
174.0, 39983.761606664855, -124492.68990667938, 75054.65448554212, -187500.02235174447, -84235.72292753732, -187500.02235174447, -187500.02235174447, -24204.391146229646, -0.042, 0.978, 0.132, 192.0, 0.0, 0.0, 0.0, 0.0, 0.0, 0.0, 0.0, 0.0, 0.0, 1.7184705009584756E9, 0.0, 2024-06-15 11:55:00.958
175.0, 39783.51232808975, -121905.25196853305, 77657.96216225173, -187500.02235174447, -80577.27880207048, -187500.02235174447, -187500.02235174447, -18434.10950113648, -0.042, 0.978, 0.132, 192.0, 0.0, 0.0, 0.0, 0.0, 0.0, 0.0, 0.0, 0.0, 0.0, 1.7184705009584956E9, 0.0, 2024-06-15 11:55:00.958
176.0, 39832.5520554247, -120334.61723740307, 78650.02198815609, -187500.02235174447, -78139.26227560786, -187500.02235174447, -187500.02235174447, -15152.158159274837, -0.042, 0.978, 0.132, 192.0, 0.0, 0.0, 0.0, 0.0, 0.0, 0.0, 0.0, 0.0, 0.0, 1.718470500958515E9, 0.0, 2024-06-15 11:55:00.958
177.0, 40024.73235425143, -122846.41687231266, 75987.63865085109, -187500.02235174447, -81786.70934280269, -187500.02235174447, -187500.02235174447, -20489.218293335234, -0.042, 0.978, 0.132, 192.0, 0.0, 0.0, 0.0, 0.0, 0.0, 0.0, 0.0, 0.0, 0.0, 1.7184705009585416E9, 0.0, 2024-06-15 11:55:00.958
178.0, 39992.16586258005, -124514.68402322341, 74918.35354785367, -187500.02235174447, -84147.27707472767, -187500.02235174447, -187500.02235174447, -24151.752788037396, -0.042, 0.978, 0.132, 192.0, 0.0, 0.0, 0.0, 0.0, 0.0, 0.0, 0.0, 0.0, 0.0, 1.7184705009585612E9, 0.0, 2024-06-15 11:55:00.958
179.0, 39795.96224975136, -122494.13102795256, 77081.71183844947, -187500.02235174447, -81312.89706383909, -187500.02235174447, -187500.02235174447, -19452.320868053543, -0.042, 0.978, 0.132, 192.0, 0.0, 0.0, 0.0, 0.0, 0.0, 0.0, 0.0, 0.0, 0.0, 1.7184705009585817E9, 0.0, 2024-06-15 11:55:00.958
180.0, 39766.2344296258, -120261.45997780086, 78824.29853967411, -187500.02235174447, -77893.95188021087, -187500.02235174447, -187500.02235174447, -14750.564366646335, -0.042, 0.978, 0.132, 192.0, 0.0, 0.0, 0.0, 0.0, 0.0, 0.0, 0.0, 0.0, 0.0, 1.7184705009586012E9, 0.0, 2024-06-15 11:55:00.958
181.0, 39958.504135430354, -122307.53866523966, 76437.44515626969, -187500.02235174447, -80868.05264568958, -187500.02235174447, -187500.02235174447, -19063.624031975753, -0.042, 0.978, 0.132, 192.0, 0.0, 0.0, 0.0, 0.0, 0.0, 0.0, 0.0, 0.0, 0.0, 1.7184705009586232E9, 0.0, 2024-06-15 11:55:00.958
182.0, 39972.47397571492, -124484.75503739776, 74843.72107311738, -187500.02235174447, -83927.71588894319, -187500.02235174447, -187500.02235174447, -23846.740883200277, -0.038, 0.972, 0.136, 192.0, 254.0, 208.0, 30.0, 96.0, 4.0, 64.0, 0.0, 0.0, 0.0, 1.718470500958645E9, 0.0, 2024-06-15 11:55:00.958
183.0, 39785.00989496826, -123081.31135479348, 76501.19233145623, -187500.02235174447, -82016.95466243681, -187500.02235174447, -187500.02235174447, -20478.936490885793, -0.038, 0.972, 0.136, 192.0, 0.0, 0.0, 0.0, 0.0, 0.0, 0.0, 0.0, 0.0, 0.0, 1.7184705009586656E9, 0.0, 2024-06-15 11:55:00.958
184.0, 39696.3181729696, -120349.99523758833, 78842.78343233865, -187500.02235174447, -77902.40083961497, -187500.02235174447, -187500.02235174447, -14692.919217696097, -0.038, 0.972, 0.136, 192.0, 0.0, 0.0, 0.0, 0.0, 0.0, 0.0, 0.0, 0.0, 0.0, 1.7184705009586856E9, 0.0, 2024-06-15 11:55:00.958
185.0, 39868.02427387527, -121770.60505993427, 76934.83852563365, -187500.02235174447, -79951.3181985996, -187500.02235174447, -187500.02235174447, -17658.01223015931, -0.038, 0.972, 0.136, 192.0, 0.0, 0.0, 0.0, 0.0, 0.0, 0.0, 0.0, 0.0, 0.0, 1.7184705009587057E9, 0.0, 2024-06-15 11:55:00.958
186.0, 39909.33029762868, -124269.55244178206, 74908.07174540422, -187500.02235174447, -83508.17364551708, -187500.02235174447, -187500.02235174447, -23202.474201020505, -0.038, 0.972, 0.136, 192.0, 0.0, 0.0, 0.0, 0.0, 0.0, 0.0, 0.0, 0.0, 0.0, 1.7184705009587257E9, 0.0, 2024-06-15 11:55:00.958
187.0, 39742.698042714364, -123552.2626104668, 75975.59106058968, -187500.02235174447, -82576.88821278671, -187500.02235174447, -187500.02235174447, -21335.902373302266, -0.038, 0.972, 0.136, 192.0, 0.0, 0.0, 0.0, 0.0, 0.0, 0.0, 0.0, 0.0, 0.0, 1.7184705009587464E9, 0.0, 2024-06-15 11:55:00.958
188.0, 39601.904404390385, -120547.78582427333, 78698.16764571282, -187500.02235174447, -78113.51306599534, -187500.02235174447, -187500.02235174447, -14897.795307373442, -0.038, 0.972, 0.136, 192.0, 0.0, 0.0, 0.0, 0.0, 0.0, 0.0, 0.0, 0.0, 0.0, 1.7184705009587665E9, 0.0, 2024-06-15 11:55:00.958
189.0, 39767.240258126294, -121209.08453572805, 77449.15216555026, -187500.02235174447, -79028.79464969572, -187500.02235174447, -187500.02235174447, -16275.109800709464, -0.038, 0.972, 0.136, 192.0, 0.0, 0.0, 0.0, 0.0, 0.0, 0.0, 0.0, 0.0, 0.0, 1.7184705009587872E9, 0.0, 2024-06-15 11:55:00.958
190.0, 39872.13699485505, -123961.4559962101, 75041.24343886894, -187500.02235174447, -82968.71429308824, -187500.02235174447, -187500.02235174447, -22316.629864767776, -0.038, 0.972, 0.136, 192.0, 0.0, 0.0, 0.0, 0.0, 0.0, 0.0, 0.0, 0.0, 0.0, 1.7184705009588075E9, 0.0, 2024-06-15 11:55:00.958
191.0, 39750.99053990728, -123974.55411846092, 75489.84295008695, -187500.02235174447, -83046.61012251499, -187500.02235174447, -187500.02235174447, -22063.876338467162, -0.038, 0.972, 0.136, 192.0, 0.0, 0.0, 0.0, 0.0, 0.0, 0.0, 0.0, 0.0, 0.0, 1.7184705009588275E9, 0.0, 2024-06-15 11:55:00.958
192.0, 39582.3913314809, -120916.09786940788, 78383.83506343783, -187500.02235174447, -78579.9492692887, -187500.02235174447, -187500.02235174447, -15437.254659802278, -0.036000000000000004, 0.98, 0.14, 192.0, 254.0, 224.0, 30.0, 160.0, 4.0, 96.0, 0.0, 0.0, 0.0, 1.7184705009588468E9, 0.0, 2024-06-15 11:55:00.958
193.0, 39733.22090306532, -120757.93692564213, 77923.81381080316, -187500.02235174447, -78255.64780898664, -187500.02235174447, -187500.02235174447, -15094.043623691037, -0.036000000000000004, 0.98, 0.14, 192.0, 0.0, 0.0, 0.0, 0.0, 0.0, 0.0, 0.0, 0.0, 0.0, 1.7184705009588675E9, 0.0, 2024-06-15 11:55:00.958
194.0, 39885.23511710586, -123550.65328486601, 75304.09995366335, -187500.02235174447, -82292.23874714837, -187500.02235174447, -187500.02235174447, -21190.392516898217, -0.036000000000000004, 0.98, 0.14, 192.0, 0.0, 0.0, 0.0, 0.0, 0.0, 0.0, 0.0, 0.0, 0.0, 1.7184705009588878E9, 0.0, 2024-06-15 11:55:00.958
195.0, 39808.769799324255, -124272.12289239441, 75146.25193431997, -187500.02235174447, -83330.63373930857, -187500.02235174447, -187500.02235174447, -22528.74791964864, -0.036000000000000004, 0.98, 0.14, 192.0, 0.0, 0.0, 0.0, 0.0, 0.0, 0.0, 0.0, 0.0, 0.0, 1.7184705009589121E9, 0.0, 2024-06-15 11:55:00.958
196.0, 39622.177436611346, -121376.16382553148, 77992.18779709194, -187500.02235174447, -79186.6426690391, -187500.02235174447, -187500.02235174447, -16191.53662819107, -0.036000000000000004, 0.98, 0.14, 192.0, 0.0, 0.0, 0.0, 0.0, 0.0, 0.0, 0.0, 0.0, 0.0, 1.7184705009589367E9, 0.0, 2024-06-15 11:55:00.958
197.0, 39718.06642032462, -120362.13223482756, 78389.26653734047, -187500.02235174447, -77589.14114107385, -187500.02235174447, -187500.02235174447, -14091.523181381606, -0.036000000000000004, 0.98, 0.14, 192.0, 0.0, 0.0, 0.0, 0.0, 0.0, 0.0, 0.0, 0.0, 0.0, 1.7184705009589608E9, 0.0, 2024-06-15 11:55:00.958
198.0, 39899.11555041261, -123038.26189497256, 75688.10292340553, -187500.02235174447, -81488.8276444468, -187500.02235174447, -187500.02235174447, -19869.7396957564, -0.036000000000000004, 0.98, 0.14, 192.0, 0.0, 0.0, 0.0, 0.0, 0.0, 0.0, 0.0, 0.0, 0.0, 1.718470500958995E9, 0.0, 2024-06-15 11:55:00.958
199.0, 39859.88823889354, -124334.52896291364, 74992.71780165647, -187500.02235174447, -83330.72314628639, -187500.02235174447, -187500.02235174447, -22603.559208340554, -0.036000000000000004, 0.98, 0.14, 192.0, 0.0, 0.0, 0.0, 0.0, 0.0, 0.0, 0.0, 0.0, 0.0, 1.7184705009590144E9, 0.0, 2024-06-15 11:55:00.959
200.0, 39672.513565124704, -121916.67370994971, 77490.34643058138, -187500.02235174447, -79904.73716315474, -187500.02235174447, -187500.02235174447, -17109.20984854816, -0.036000000000000004, 0.98, 0.14, 192.0, 0.0, 0.0, 0.0, 0.0, 0.0, 0.0, 0.0, 0.0, 0.0, 1.718470500959034E9, 0.0, 2024-06-15 11:55:00.959
201.0, 39708.54457718666, -120146.68377002285, 78711.08695400799, -187500.02235174447, -77178.85251985223, -187500.02235174447, -187500.02235174447, -13413.192440651947, -0.036000000000000004, 0.98, 0.14, 192.0, 0.0, 0.0, 0.0, 0.0, 0.0, 0.0, 0.0, 0.0, 0.0, 1.718470500959052E9, 0.0, 2024-06-15 11:55:00.959
202.0, 39915.879358754086, -122504.70340307993, 76133.93081831108, -187500.02235174447, -80639.70722433415, -187500.02235174447, -187500.02235174447, -18455.544824069122, -0.036000000000000004, 0.98, 0.14, 192.0, 0.0, 0.0, 0.0, 0.0, 0.0, 0.0, 0.0, 0.0, 0.0, 1.718470500959071E9, 0.0, 2024-06-15 11:55:00.959
203.0, 39924.03774548027, -124358.13240505844, 74897.63348074359, -187500.02235174447, -83245.47359293385, -187500.02235174447, -187500.02235174447, -22463.63728805033, -0.04, 0.982, 0.136, 192.0, 254.0, 192.0, 30.0, 176.0, 4.0, 64.0, 0.0, 0.0, 0.0, 1.7184705009590907E9, 0.0, 2024-06-15 11:55:00.959
204.0, 39735.41137402193, -122488.02900171626, 76954.32924679868, -187500.02235174447, -80659.64498038829, -187500.02235174447, -187500.02235174447, -18104.734194843077, -0.04, 0.982, 0.136, 192.0, 0.0, 0.0, 0.0, 0.0, 0.0, 0.0, 0.0, 0.0, 0.0, 1.7184705009591095E9, 0.0, 2024-06-15 11:55:00.959
205.0, 39704.16363527341, -120073.70532437628, 78897.90283416543, -187500.02235174447, -77003.34662238916, -187500.02235174447, -187500.02235174447, -13050.803607798054, -0.04, 0.982, 0.136, 192.0, 0.0, 0.0, 0.0, 0.0, 0.0, 0.0, 0.0, 0.0, 0.0, 1.718470500959128E9, 0.0, 2024-06-15 11:55:00.959
206.0, 39919.25447216684, -121959.20907964815, 76617.62256832392, -187500.02235174447, -79768.99501907767, -187500.02235174447, -187500.02235174447, -17020.18285038267, -0.04, 0.982, 0.136, 192.0, 0.0, 0.0, 0.0, 0.0, 0.0, 0.0, 0.0, 0.0, 0.0, 1.7184705009591455E9, 0.0, 2024-06-15 11:55:00.959
207.0, 39955.576056906706, -124193.80237982303, 74929.75293752586, -187500.02235174447, -82950.0282347236, -187500.02235174447, -187500.02235174447, -21978.3362124367, -0.04, 0.982, 0.136, 192.0, 0.0, 0.0, 0.0, 0.0, 0.0, 0.0, 0.0, 0.0, 0.0, 1.7184705009591632E9, 0.0, 2024-06-15 11:55:00.959
208.0, 39787.06625545815, -122995.12302817381, 76417.26153102655, -187500.02235174447, -81336.96989261746, -187500.02235174447, -187500.02235174447, -19030.074063548334, -0.04, 0.982, 0.136, 192.0, 0.0, 0.0, 0.0, 0.0, 0.0, 0.0, 0.0, 0.0, 0.0, 1.7184705009591804E9, 0.0, 2024-06-15 11:55:00.959
209.0, 39695.11117876902, -120154.84215674904, 78904.65306099094, -187500.02235174447, -77081.37656228263, -187500.02235174447, -187500.02235174447, -13019.108834160428, -0.04, 0.982, 0.136, 192.0, 0.0, 0.0, 0.0, 0.0, 0.0, 0.0, 0.0, 0.0, 0.0, 1.718470500959198E9, 0.0, 2024-06-15 11:55:00.959
210.0, 39905.93283247147, -121404.21526482288, 77130.48334485095, -187500.02235174447, -78887.77749392719, -187500.02235174447, -187500.02235174447, -15603.506935060852, -0.04, 0.982, 0.136, 192.0, 0.0, 0.0, 0.0, 0.0, 0.0, 0.0, 0.0, 0.0, 0.0, 1.7184705009592156E9, 0.0, 2024-06-15 11:55:00.959
211.0, 39972.228106525916, -124013.8708369578, 74980.29023173932, -187500.02235174447, -82607.71126839057, -187500.02235174447, -187500.02235174447, -21321.17257370622, -0.04, 0.982, 0.136, 192.0, 0.0, 0.0, 0.0, 0.0, 0.0, 0.0, 0.0, 0.0, 0.0, 1.718470500959233E9, 0.0, 2024-06-15 11:55:00.959
212.0, 39838.2517502608, -123482.3016503217, 75912.29092029226, -187500.02235174447, -81951.24053373821, -187500.02235174447, -187500.02235174447, -19890.70563205548, -0.04, 0.982, 0.136, 192.0, 0.0, 0.0, 0.0, 0.0, 0.0, 0.0, 0.0, 0.0, 0.0, 1.7184705009592505E9, 0.0, 2024-06-15 11:55:00.959
213.0, 39707.06936205261, -120420.671453556, 78735.20448627527, -187500.02235174447, -77430.5778659079, -187500.02235174447, -187500.02235174447, -13352.596861433609, -0.036000000000000004, 0.98, 0.138, 192.0, 254.0, 224.0, 30.0, 160.0, 4.0, 80.0, 0.0, 0.0, 0.0, 1.7184705009592679E9, 0.0, 2024-06-15 11:55:00.959
214.0, 39874.93096291196, -120876.82585439991, 77664.22065069922, -187500.02235174447, -78050.70466407594, -187500.02235174447, -187500.02235174447, -14290.788983200668, -0.036000000000000004, 0.98, 0.138, 192.0, 0.0, 0.0, 0.0, 0.0, 0.0, 0.0, 0.0, 0.0, 0.0, 1.7184705009592853E9, 0.0, 2024-06-15 11:55:00.959
215.0, 40001.86651967365, -123668.46932988994, 75172.78345498841, -187500.02235174447, -82073.50457590874, -187500.02235174447, -187500.02235174447, -20366.373105808867, -0.036000000000000004, 0.98, 0.138, 192.0, 0.0, 0.0, 0.0, 0.0, 0.0, 0.0, 0.0, 0.0, 0.0, 1.718470500959303E9, 0.0, 2024-06-15 11:55:00.959
216.0, 39896.634506778064, -123878.97805917003, 75478.37650518138, -187500.02235174447, -82426.1033446912, -187500.02235174447, -187500.02235174447, -20554.016000511172, -0.036000000000000004, 0.98, 0.138, 192.0, 0.0, 0.0, 0.0, 0.0, 0.0, 0.0, 0.0, 0.0, 0.0, 1.7184705009593203E9, 0.0, 2024-06-15 11:55:00.959
217.0, 39716.99353659076, -120859.27973500249, 78398.87778745625, -187500.02235174447, -78024.84369574115, -187500.02235174447, -187500.02235174447, -14016.421320011774, -0.036000000000000004, 0.98, 0.138, 192.0, 0.0, 0.0, 0.0, 0.0, 0.0, 0.0, 0.0, 0.0, 0.0, 1.718470500959338E9, 0.0, 2024-06-15 11:55:00.959
218.0, 39848.15357305451, -120469.33120123521, 78153.83561299273, -187500.02235174447, -77366.89774595473, -187500.02235174447, -187500.02235174447, -13213.703121388331, -0.036000000000000004, 0.98, 0.138, 192.0, 0.0, 0.0, 0.0, 0.0, 0.0, 0.0, 0.0, 0.0, 0.0, 1.718470500959355E9, 0.0, 2024-06-15 11:55:00.959
219.0, 40014.2940895908, -123309.9026453379, 75426.69927200071, -187500.02235174447, -81491.24163284799, -187500.02235174447, -187500.02235174447, -19294.986938832633, -0.036000000000000004, 0.98, 0.138, 192.0, 0.0, 0.0, 0.0, 0.0, 0.0, 0.0, 0.0, 0.0, 0.0, 1.7184705009593728E9, 0.0, 2024-06-15 11:55:00.959
220.0, 39929.55862636073, -124164.0075044641, 75147.48128026501, -187500.02235174447, -82743.36400548983, -187500.02235174447, -187500.02235174447, -20981.336651007732, -0.036000000000000004, 0.98, 0.138, 192.0, 0.0, 0.0, 0.0, 0.0, 0.0, 0.0, 0.0, 0.0, 0.0, 1.7184705009593902E9, 0.0, 2024-06-15 11:55:00.959
221.0, 39737.668900211924, -121345.31841818315, 77977.74857017382, -187500.02235174447, -78719.31239596754, -187500.02235174447, -187500.02235174447, -14844.352286380803, -0.036000000000000004, 0.98, 0.138, 192.0, 0.0, 0.0, 0.0, 0.0, 0.0, 0.0, 0.0, 0.0, 0.0, 1.7184705009594076E9, 0.0, 2024-06-15 11:55:00.959
222.0, 39814.62595637154, -120128.08711863603, 78581.6032983784, -187500.02235174447, -76817.1789428209, -187500.02235174447, -187500.02235174447, -12336.464206750896, -0.036000000000000004, 0.98, 0.138, 192.0, 0.0, 0.0, 0.0, 0.0, 0.0, 0.0, 0.0, 0.0, 0.0, 1.7184705009594254E9, 0.0, 2024-06-15 11:55:00.959
223.0, 40001.68770571801, -122797.44420021107, 75807.1930178634, -187500.02235174447, -80723.30274859701, -187500.02235174447, -187500.02235174447, -17989.063917286865, -0.038, 0.986, 0.14200000000000002, 192.0, 254.0, 208.0, 30.0, 208.0, 4.0, 112.0, 0.0, 0.0, 0.0, 1.7184705009594429E9, 0.0, 2024-06-15 11:55:00.959
224.0, 39969.92587684702, -124241.41159551282, 74965.85100482119, -187500.02235174447, -82797.90226196079, -187500.02235174447, -187500.02235174447, -21051.565832086308, -0.038, 0.986, 0.14200000000000002, 192.0, 0.0, 0.0, 0.0, 0.0, 0.0, 0.0, 0.0, 0.0, 0.0, 1.7184705009594605E9, 0.0, 2024-06-15 11:55:00.959
225.0, 39774.8398512411, -121851.65248532922, 77478.90233742027, -187500.02235174447, -79450.30384663389, -187500.02235174447, -187500.02235174447, -15765.467675384007, -0.038, 0.986, 0.14200000000000002, 192.0, 0.0, 0.0, 0.0, 0.0, 0.0, 0.0, 0.0, 0.0, 0.0, 1.718470500959478E9, 0.0, 2024-06-15 11:55:00.959
226.0, 39793.25768867227, -119922.62988360286, 78876.08753157705, -187500.02235174447, -76473.85614798739, -187500.02235174447, -187500.02235174447, -11748.456865365133, -0.038, 0.986, 0.14200000000000002, 192.0, 0.0, 0.0, 0.0, 0.0, 0.0, 0.0, 0.0, 0.0, 0.0, 1.7184705009594955E9, 0.0, 2024-06-15 11:55:00.959
227.0, 40000.77128419534, -122253.24627795772, 76259.79349133892, -187500.02235174447, -79882.94421231082, -187500.02235174447, -187500.02235174447, -16596.930217376976, -0.038, 0.986, 0.14200000000000002, 192.0, 0.0, 0.0, 0.0, 0.0, 0.0, 0.0, 0.0, 0.0, 0.0, 1.7184705009595132E9, 0.0, 2024-06-15 11:55:00.959
228.0, 39997.68674346051, -124298.27443340713, 74800.7610202743, -187500.02235174447, -82784.91589843224, -187500.02235174447, -187500.02235174447, -20944.031589511826, -0.038, 0.986, 0.14200000000000002, 192.0, 0.0, 0.0, 0.0, 0.0, 0.0, 0.0, 0.0, 0.0, 0.0, 1.7184705009595308E9, 0.0, 2024-06-15 11:55:00.959
229.0, 39805.17116846695, -122434.11659409007, 76908.01643228727, -187500.02235174447, -80252.95499002398, -187500.02235174447, -187500.02235174447, -16807.818926312797, -0.038, 0.986, 0.14200000000000002, 192.0, 0.0, 0.0, 0.0, 0.0, 0.0, 0.0, 0.0, 0.0, 0.0, 1.7184705009595485E9, 0.0, 2024-06-15 11:55:00.959
230.0, 39773.40933959596, -119885.90596746278, 79022.33499554814, -187500.02235174447, -76385.11972249982, -187500.02235174447, -187500.02235174447, -11510.835470060763, -0.038, 0.986, 0.14200000000000002, 192.0, 0.0, 0.0, 0.0, 0.0, 0.0, 0.0, 0.0, 0.0, 0.0, 1.718470500959566E9, 0.0, 2024-06-15 11:55:00.959
231.0, 39978.643057184585, -121694.60912878624, 76770.50850039822, -187500.02235174447, -79015.16008557798, -187500.02235174447, -187500.02235174447, -15196.414613296345, -0.038, 0.986, 0.14200000000000002, 192.0, 0.0, 0.0, 0.0, 0.0, 0.0, 0.0, 0.0, 0.0, 0.0, 1.7184705009595833E9, 0.0, 2024-06-15 11:55:00.959
232.0, 40015.97047042495, -124137.38657681782, 74826.73374733135, -187500.02235174447, -82508.69304045357, -187500.02235174447, -187500.02235174447, -20450.77329287211, -0.038, 0.986, 0.14200000000000002, 192.0, 0.0, 0.0, 0.0, 0.0, 0.0, 0.0, 0.0, 0.0, 0.0, 1.7184705009596007E9, 0.0, 2024-06-15 11:55:00.959
233.0, 39848.466497476875, -123050.37654046733, 76292.76231441049, -187500.02235174447, -81063.69746490687, -187500.02235174447, -187500.02235174447, -17856.29455522234, -0.042, 0.984, 0.14200000000000002, 192.0, 254.0, 176.0, 30.0, 192.0, 4.0, 112.0, 0.0, 0.0, 0.0, 1.7184705009596183E9, 0.0, 2024-06-15 11:55:00.959
234.0, 39754.61152250905, -120058.55084163557, 78981.140730517, -187500.02235174447, -76601.37285010492, -187500.02235174447, -187500.02235174447, -11643.381314680733, -0.042, 0.984, 0.14200000000000002, 192.0, 0.0, 0.0, 0.0, 0.0, 0.0, 0.0, 0.0, 0.0, 0.0, 1.718470500959638E9, 0.0, 2024-06-15 11:55:00.959
235.0, 39952.647978383065, -121095.60472912846, 77354.89485918223, -187500.02235174447, -78105.77936241381, -187500.02235174447, -187500.02235174447, -13788.38882307873, -0.042, 0.984, 0.14200000000000002, 192.0, 0.0, 0.0, 0.0, 0.0, 0.0, 0.0, 0.0, 0.0, 0.0, 1.718470500959656E9, 0.0, 2024-06-15 11:55:00.959
236.0, 40041.16088642608, -123858.32504729331, 74961.67122860804, -187500.02235174447, -82077.08085502159, -187500.02235174447, -187500.02235174447, -19693.876170382046, -0.042, 0.984, 0.14200000000000002, 192.0, 0.0, 0.0, 0.0, 0.0, 0.0, 0.0, 0.0, 0.0, 0.0, 1.7184705009596734E9, 0.0, 2024-06-15 11:55:00.959
237.0, 39900.72487601339, -123478.7924264422, 75810.88105569853, -187500.02235174447, -81638.6737392752, -187500.02235174447, -187500.02235174447, -18656.039971833226, -0.042, 0.984, 0.14200000000000002, 192.0, 0.0, 0.0, 0.0, 0.0, 0.0, 0.0, 0.0, 0.0, 0.0, 1.7184705009596908E9, 0.0, 2024-06-15 11:55:00.959
238.0, 39748.86712418403, -120327.06234777717, 78784.71360024376, -187500.02235174447, -76997.49046534186, -187500.02235174447, -187500.02235174447, -12041.66704912985, -0.042, 0.984, 0.14200000000000002, 192.0, 0.0, 0.0, 0.0, 0.0, 0.0, 0.0, 0.0, 0.0, 0.0, 1.7184705009597085E9, 0.0, 2024-06-15 11:55:00.959
239.0, 39913.68888779746, -120620.38429026418, 77857.20561232635, -187500.02235174447, -77344.2107253326, -187500.02235174447, -187500.02235174447, -12584.479163226983, -0.042, 0.984, 0.14200000000000002, 192.0, 0.0, 0.0, 0.0, 0.0, 0.0, 0.0, 0.0, 0.0, 0.0, 1.7184705009597259E9, 0.0, 2024-06-15 11:55:00.959
240.0, 40046.14532543961, -123549.58040113216, 75147.10130060927, -187500.02235174447, -81573.89838384371, -187500.02235174447, -187500.02235174447, -18778.57223493722, -0.042, 0.984, 0.14200000000000002, 192.0, 0.0, 0.0, 0.0, 0.0, 0.0, 0.0, 0.0, 0.0, 0.0, 1.7184705009597433E9, 0.0, 2024-06-15 11:55:00.959
241.0, 39936.19709446396, -123917.22189393305, 75344.04252100499, -187500.02235174447, -82165.10202468658, -187500.02235174447, -187500.02235174447, -19360.835177997968, -0.042, 0.984, 0.14200000000000002, 192.0, 0.0, 0.0, 0.0, 0.0, 0.0, 0.0, 0.0, 0.0, 0.0, 1.718470501438314E9, 0.0, 2024-06-15 11:55:01.438
242.0, 39747.749536961266, -120770.52095777047, 78433.59004659535, -187500.02235174447, -77631.74356600567, -187500.02235174447, -187500.02235174447, -12757.749886244523, -0.042, 0.984, 0.14200000000000002, 192.0, 0.0, 0.0, 0.0, 0.0, 0.0, 0.0, 0.0, 0.0, 0.0, 1.7184705014385E9, 0.0, 2024-06-15 11:55:01.438
243.0, 39874.349817556125, -120155.60211606052, 78383.27626982646, -187500.02235174447, -76635.57101912153, -187500.02235174447, -187500.02235174447, -11507.728577581474, -0.042, 0.984, 0.14200000000000002, 192.0, 0.0, 0.0, 0.0, 0.0, 0.0, 0.0, 0.0, 0.0, 0.0, 1.7184705014385383E9, 0.0, 2024-06-15 11:55:01.438
244.0, 40043.172543427056, -123076.21515705767, 75489.26180473111, -187500.02235174447, -80875.56283182655, -187500.02235174447, -187500.02235174447, -17604.658616144494, -0.054, 0.984, 0.14, 192.0, 254.0, 80.0, 30.0, 192.0, 4.0, 96.0, 0.0, 0.0, 0.0, 1.7184705014385529E9, 0.0, 2024-06-15 11:55:01.438
245.0, 39970.57407743622, -124130.56929475896, 75043.210392381, -187500.02235174447, -82414.79336199682, -187500.02235174447, -187500.02235174447, -19712.60693223559, -0.054, 0.984, 0.14, 192.0, 0.0, 0.0, 0.0, 0.0, 0.0, 0.0, 0.0, 0.0, 0.0, 1.718470501438564E9, 0.0, 2024-06-15 11:55:01.438
246.0, 39766.97203719283, -121289.21553960032, 77964.18106128945, -187500.02235174447, -78386.69608672812, -187500.02235174447, -187500.02235174447, -13666.817684986316, -0.054, 0.984, 0.14, 192.0, 0.0, 0.0, 0.0, 0.0, 0.0, 0.0, 0.0, 0.0, 0.0, 1.7184705014385743E9, 0.0, 2024-06-15 11:55:01.438
247.0, 39834.18373276994, -119855.06056011446, 78778.90214668539, -187500.02235174447, -76158.24951627845, -187500.02235174447, -187500.02235174447, -10739.476768908116, -0.054, 0.984, 0.14, 192.0, 0.0, 0.0, 0.0, 0.0, 0.0, 0.0, 0.0, 0.0, 0.0, 1.7184705014385843E9, 0.0, 2024-06-15 11:55:01.438
248.0, 40018.02683091484, -122507.51972288129, 75936.65432174855, -187500.02235174447, -80043.87677238903, -187500.02235174447, -187500.02235174447, -16256.289631878095, -0.054, 0.984, 0.14, 192.0, 0.0, 0.0, 0.0, 0.0, 0.0, 0.0, 0.0, 0.0, 0.0, 1.7184705014385948E9, 0.0, 2024-06-15 11:55:01.438
249.0, 39995.96565913745, -124181.82184479498, 74866.78807339526, -187500.02235174447, -82440.00612974241, -187500.02235174447, -187500.02235174447, -19741.9100692165, -0.054, 0.984, 0.14, 192.0, 0.0, 0.0, 0.0, 0.0, 0.0, 0.0, 0.0, 0.0, 0.0, 1.7184705014386048E9, 0.0, 2024-06-15 11:55:01.438
250.0, 39804.7464853223, -121900.24517777505, 77375.10083616982, -187500.02235174447, -79243.05847204429, -187500.02235174447, -187500.02235174447, -14723.898735511153, -0.054, 0.984, 0.14, 192.0, 0.0, 0.0, 0.0, 0.0, 0.0, 0.0, 0.0, 0.0, 0.0, 1.7184705014386148E9, 0.0, 2024-06-15 11:55:01.438
251.0, 39802.958345765874, -119734.49525052254, 79021.9997193813, -187500.02235174447, -75931.24519959035, -187500.02235174447, -187500.02235174447, -10293.51476353583, -0.054, 0.984, 0.14, 192.0, 0.0, 0.0, 0.0, 0.0, 0.0, 0.0, 0.0, 0.0, 0.0, 1.7184705014386249E9, 0.0, 2024-06-15 11:55:01.438
252.0, 40007.365048809654, -121934.3315880694, 76441.46847027165, -187500.02235174447, -79171.59994502067, -187500.02235174447, -187500.02235174447, -14858.523292365468, -0.054, 0.984, 0.14, 192.0, 0.0, 0.0, 0.0, 0.0, 0.0, 0.0, 0.0, 0.0, 0.0, 1.7184705014386349E9, 0.0, 2024-06-15 11:55:01.438
253.0, 40024.91116820707, -124132.91622792676, 74796.29067138323, -187500.02235174447, -82309.11431421213, -187500.02235174447, -187500.02235174447, -19510.547162359617, -0.054, 0.984, 0.14, 192.0, 0.0, 0.0, 0.0, 0.0, 0.0, 0.0, 0.0, 0.0, 0.0, 1.718470501438645E9, 0.0, 2024-06-15 11:55:01.438
254.0, 39838.94465433892, -122440.8444691711, 76817.9836056213, -187500.02235174447, -80010.50561791725, -187500.02235174447, -187500.02235174447, -15742.087750683755, -0.052000000000000005, 0.98, 0.146, 192.0, 254.0, 96.0, 30.0, 160.0, 4.0, 144.0, 0.0, 0.0, 0.0, 1.7184705014386551E9, 0.0, 2024-06-15 11:55:01.438
255.0, 39781.67948504442, -119696.20671227059, 79155.43963377949, -187500.02235174447, -75873.46594017338, -187500.02235174447, -187500.02235174447, -10111.549211925176, -0.052000000000000005, 0.98, 0.146, 192.0, 0.0, 0.0, 0.0, 0.0, 0.0, 0.0, 0.0, 0.0, 0.0, 1.7184705014386652E9, 0.0, 2024-06-15 11:55:01.438
0.0, 39990.891813146096, -121341.7421390703, 77001.20085492145, -187500.02235174447, -78265.28141084689, -187500.02235174447, -187500.02235174447, -13457.13597025108, -0.052000000000000005, 0.98, 0.146, 192.0, 0.0, 0.0, 0.0, 0.0, 0.0, 0.0, 0.0, 0.0, 0.0, 1.718470501438675E9, 0.0, 2024-06-15 11:55:01.438
1.0, 40047.374671384656, -123983.83009240987, 74823.26922694079, -187500.02235174447, -82036.93712197985, -187500.02235174447, -187500.02235174447, -19032.778624627426, -0.052000000000000005, 0.98, 0.146, 192.0, 0.0, 0.0, 0.0, 0.0, 0.0, 0.0, 0.0, 0.0, 0.0, 1.718470501438685E9, 0.0, 2024-06-15 11:55:01.438
2.0, 39874.8639076786, -123017.69829007368, 76226.82466826733, -187500.02235174447, -80780.3667521914, -187500.02235174447, -187500.02235174447, -16780.907425988607, -0.052000000000000005, 0.98, 0.146, 192.0, 0.0, 0.0, 0.0, 0.0, 0.0, 0.0, 0.0, 0.0, 0.0, 1.718470501438697E9, 0.0, 2024-06-15 11:55:01.438
3.0, 39764.46864181384, -119853.71945544714, 79108.94800531244, -187500.02235174447, -76096.62575681518, -187500.02235174447, -187500.02235174447, -10306.925810209013, -0.052000000000000005, 0.98, 0.146, 192.0, 0.0, 0.0, 0.0, 0.0, 0.0, 0.0, 0.0, 0.0, 0.0, 1.718470501438707E9, 0.0, 2024-06-15 11:55:01.438
4.0, 39958.012397052335, -120695.46379988955, 77632.05649042803, -187500.02235174447, -77300.60247190029, -187500.02235174447, -187500.02235174447, -12046.517377676651, -0.052000000000000005, 0.98, 0.146, 192.0, 0.0, 0.0, 0.0, 0.0, 0.0, 0.0, 0.0, 0.0, 0.0, 1.7184705014387171E9, 0.0, 2024-06-15 11:55:01.438
5.0, 40064.18318321505, -123601.70466920194, 75036.48251729996, -187500.02235174447, -81477.16003384114, -187500.02235174447, -187500.02235174447, -18174.225768354627, -0.052000000000000005, 0.98, 0.146, 192.0, 0.0, 0.0, 0.0, 0.0, 0.0, 0.0, 0.0, 0.0, 0.0, 1.718470501438732E9, 0.0, 2024-06-15 11:55:01.438
6.0, 39919.94737624495, -123388.31256488712, 75769.19505228937, -187500.02235174447, -81275.18967094299, -187500.02235174447, -187500.02235174447, -17524.482908783306, -0.052000000000000005, 0.98, 0.146, 192.0, 0.0, 0.0, 0.0, 0.0, 0.0, 0.0, 0.0, 0.0, 0.0, 1.7184705014387417E9, 0.0, 2024-06-15 11:55:01.438
7.0, 39760.5347347897, -120114.16198184039, 78904.56365401312, -187500.02235174447, -76489.14474119482, -187500.02235174447, -187500.02235174447, -10745.824664333424, -0.052000000000000005, 0.98, 0.146, 192.0, 0.0, 0.0, 0.0, 0.0, 0.0, 0.0, 0.0, 0.0, 0.0, 1.718470501438752E9, 0.0, 2024-06-15 11:55:01.438
8.0, 39917.73455354387, -120151.82467124757, 78192.97351753396, -187500.02235174447, -76460.22158386966, -187500.02235174447, -187500.02235174447, -10807.560182518982, -0.056, 0.976, 0.15, 192.0, 254.0, 64.0, 30.0, 128.0, 4.0, 176.0, 0.0, 0.0, 0.0, 1.718470501438762E9, 0.0, 2024-06-15 11:55:01.438
9.0, 40051.33093015324, -123132.27333215158, 75336.532334868, -187500.02235174447, -80783.87597607088, -187500.02235174447, -187500.02235174447, -17079.280862722502, -0.056, 0.976, 0.15, 192.0, 0.0, 0.0, 0.0, 0.0, 0.0, 0.0, 0.0, 0.0, 0.0, 1.718470501438772E9, 0.0, 2024-06-15 11:55:01.438
10.0, 39960.31462673123, -123692.7433243684, 75360.49340492408, -187500.02235174447, -81648.15087892424, -187500.02235174447, -187500.02235174447, -18084.461162622116, -0.056, 0.976, 0.15, 192.0, 0.0, 0.0, 0.0, 0.0, 0.0, 0.0, 0.0, 0.0, 0.0, 1.718470501438782E9, 0.0, 2024-06-15 11:55:01.438
11.0, 39770.21304013885, -120508.33499530972, 78536.7880507455, -187500.02235174447, -77084.81873092875, -187500.02235174447, -187500.02235174447, -11459.895844447117, -0.056, 0.976, 0.15, 192.0, 0.0, 0.0, 0.0, 0.0, 0.0, 0.0, 0.0, 0.0, 0.0, 1.718470501438792E9, 0.0, 2024-06-15 11:55:01.438
12.0, 39878.70840772491, -119657.85111878529, 78708.78472432909, -187500.02235174447, -75727.64315934696, -187500.02235174447, -187500.02235174447, -9740.912585367274, -0.056, 0.976, 0.15, 192.0, 0.0, 0.0, 0.0, 0.0, 0.0, 0.0, 0.0, 0.0, 0.0, 1.718470501438802E9, 0.0, 2024-06-15 11:55:01.438
13.0, 40049.475735363456, -122540.2203250194, 75748.85496483505, -187500.02235174447, -79933.36974780199, -187500.02235174447, -187500.02235174447, -15763.50072187194, -0.056, 0.976, 0.15, 192.0, 0.0, 0.0, 0.0, 0.0, 0.0, 0.0, 0.0, 0.0, 0.0, 1.718470501438812E9, 0.0, 2024-06-15 11:55:01.438
14.0, 39988.74604567839, -123820.39413695266, 75078.74966606495, -187500.02235174447, -81784.02713346806, -187500.02235174447, -187500.02235174447, -18326.508203328634, -0.056, 0.976, 0.15, 192.0, 0.0, 0.0, 0.0, 0.0, 0.0, 0.0, 0.0, 0.0, 0.0, 1.718470501438822E9, 0.0, 2024-06-15 11:55:01.438
15.0, 39777.030322197716, -120978.5039399271, 78041.0710622157, -187500.02235174447, -77788.13872195945, -187500.02235174447, -187500.02235174447, -12344.0637998657, -0.056, 0.976, 0.15, 192.0, 0.0, 0.0, 0.0, 0.0, 0.0, 0.0, 0.0, 0.0, 0.0, 1.7184705014388318E9, 0.0, 2024-06-15 11:55:01.438
16.0, 39828.30522397819, -119299.68676563345, 79090.84309230365, -187500.02235174447, -75198.95734774559, -187500.02235174447, -187500.02235174447, -8949.414962460394, -0.056, 0.976, 0.15, 192.0, 0.0, 0.0, 0.0, 0.0, 0.0, 0.0, 0.0, 0.0, 0.0, 1.7184705014388416E9, 0.0, 2024-06-15 11:55:01.438
17.0, 40032.77898225534, -121867.20929947011, 76240.749805063, -187500.02235174447, -78969.54017514469, -187500.02235174447, -187500.02235174447, -14293.985282657777, -0.056, 0.976, 0.15, 192.0, 0.0, 0.0, 0.0, 0.0, 0.0, 0.0, 0.0, 0.0, 0.0, 1.718470501438852E9, 0.0, 2024-06-15 11:55:01.438
18.0, 40016.171636125044, -123769.1639386611, 74921.34868161067, -187500.02235174447, -81684.24894621957, -187500.02235174447, -187500.02235174447, -18231.110957993384, -0.048, 0.978, 0.148, 192.0, 254.0, 128.0, 30.0, 144.0, 4.0, 160.0, 0.0, 0.0, 0.0, 1.718470501438862E9, 0.0, 2024-06-15 11:55:01.438
19.0, 39821.08561051913, -121498.29375723527, 77449.10746206135, -187500.02235174447, -78549.28267589601, -187500.02235174447, -187500.02235174447, -13341.510396183778, -0.048, 0.978, 0.148, 192.0, 0.0, 0.0, 0.0, 0.0, 0.0, 0.0, 0.0, 0.0, 0.0, 1.7184705014388719E9, 0.0, 2024-06-15 11:55:01.438
20.0, 39817.5987383841, -119105.13718189445, 79317.06509793582, -187500.02235174447, -74917.45947807544, -187500.02235174447, -187500.02235174447, -8489.706634248094, -0.048, 0.978, 0.148, 192.0, 0.0, 0.0, 0.0, 0.0, 0.0, 0.0, 0.0, 0.0, 0.0, 1.7184705014388816E9, 0.0, 2024-06-15 11:55:01.438
21.0, 40025.87229321865, -121205.93293975985, 76767.13338698547, -187500.02235174447, -77996.94871866092, -187500.02235174447, -187500.02235174447, -12816.803195095445, -0.048, 0.978, 0.148, 192.0, 0.0, 0.0, 0.0, 0.0, 0.0, 0.0, 0.0, 0.0, 0.0, 1.7184705014388916E9, 0.0, 2024-06-15 11:55:01.438
22.0, 40048.559313840786, -123625.79984972476, 74867.07864607319, -187500.02235174447, -81441.15137352364, -187500.02235174447, -187500.02235174447, -17884.16718055811, -0.048, 0.978, 0.148, 192.0, 0.0, 0.0, 0.0, 0.0, 0.0, 0.0, 0.0, 0.0, 0.0, 1.7184705014389012E9, 0.0, 2024-06-15 11:55:01.438
23.0, 39853.69680567942, -122044.2574673006, 76817.20129456536, -187500.02235174447, -79322.16129567163, -187500.02235174447, -187500.02235174447, -14397.898542630499, -0.048, 0.978, 0.148, 192.0, 0.0, 0.0, 0.0, 0.0, 0.0, 0.0, 0.0, 0.0, 0.0, 1.7184705014389114E9, 0.0, 2024-06-15 11:55:01.438
