%OpenBCI Raw EXG Data
%Number of channels = 8
%Sample Rate = 250 Hz
%Board = OpenBCI_GUI$BoardCytonSerial
Sample Index, EXG Channel 0, EXG Channel 1, EXG Channel 2, EXG Channel 3, EXG Channel 4, EXG Channel 5, EXG Channel 6, EXG Channel 7, Accel Channel 0, Accel Channel 1, Accel Channel 2, Other, Other, Other, Other, Other, Other, Other, Analog Channel 0, Analog Channel 1, Analog Channel 2, Timestamp, Other, Timestamp (Formatted)
33.0, 53783.7956886048, -138668.76973733542, 93761.25410333325, -187500.02235174447, 93248.32627157286, -187500.02235174447, -187500.02235174447, -187500.02235174447, 0.0, 0.0, 0.0, 192.0, 0.0, 0.0, 0.0, 0.0, 0.0, 0.0, 0.0, 0.0, 0.0, 1.718466286934744E9, 0.0, 2024-06-15 10:44:46.934
34.0, 50275.13060273297, -146309.9818003156, 90963.28508416237, -187500.02235174447, 91190.33410433937, -187500.02235174447, -187500.02235174447, -187500.02235174447, 0.0, 0.0, 0.0, 192.0, 0.0, 0.0, 0.0, 0.0, 0.0, 0.0, 0.0, 0.0, 0.0, 1.7184662869347596E9, 0.0, 2024-06-15 10:44:46.934
35.0, 53935.45227473406, -139879.09434784585, 93564.69286259328, -187500.02235174447, 93368.33278755342, -187500.02235174447, -187500.02235174447, -187500.02235174447, -0.058, 0.96, -0.216, 192.0, 254.0, 48.0, 30.0, 0.0, 249.0, 64.0, 0.0, 0.0, 0.0, 1.7184662869347696E9, 0.0, 2024-06-15 10:44:46.934
36.0, 57553.506797970156, -132370.76340565245, 96552.89757882328, -187500.02235174447, 95606.99410521914, -187500.02235174447, -187500.02235174447, -187500.02235174447, -0.058, 0.96, -0.216, 192.0, 0.0, 0.0, 0.0, 0.0, 0.0, 0.0, 0.0, 0.0, 0.0, 1.718466286934779E9, 0.0, 2024-06-15 10:44:46.934
37.0, 54736.96347915691, -136780.74023494008, 94458.74028906111, -187500.02235174447, 93804.52708059872, -187500.02235174447, -187500.02235174447, -187500.02235174447, -0.058, 0.96, -0.216, 192.0, 0.0, 0.0, 0.0, 0.0, 0.0, 0.0, 0.0, 0.0, 0.0, 1.7184662869347885E9, 0.0, 2024-06-15 10:44:46.934
38.0, 50423.41207544948, -145795.8022708657, 91098.46843462807, -187500.02235174447, 91270.95684658967, -187500.02235174447, -187500.02235174447, -187500.02235174447, -0.058, 0.96, -0.216, 192.0, 0.0, 0.0, 0.0, 0.0, 0.0, 0.0, 0.0, 0.0, 0.0, 1.7184662869347978E9, 0.0, 2024-06-15 10:44:46.934
39.0, 52939.52559703894, -141703.48843377692, 92781.44303339042, -187500.02235174447, 92750.99995744228, -187500.02235174447, -187500.02235174447, -187500.02235174447, -0.058, 0.96, -0.216, 192.0, 0.0, 0.0, 0.0, 0.0, 0.0, 0.0, 0.0, 0.0, 0.0, 1.7184662869348068E9, 0.0, 2024-06-15 10:44:46.934
40.0, 57347.11078966985, -132902.6231649665, 96346.16629435615, -187500.02235174447, 95484.01480722605, -187500.02235174447, -187500.02235174447, -187500.02235174447, -0.058, 0.96, -0.216, 192.0, 0.0, 0.0, 0.0, 0.0, 0.0, 0.0, 0.0, 0.0, 0.0, 1.7184662869348164E9, 0.0, 2024-06-15 10:44:46.934
41.0, 55630.89914690246, -135093.6305634535, 95127.77270409736, -187500.02235174447, 94364.28181699298, -187500.02235174447, -187500.02235174447, -187500.02235174447, -0.058, 0.96, -0.216, 192.0, 0.0, 0.0, 0.0, 0.0, 0.0, 0.0, 0.0, 0.0, 0.0, 1.718466286934826E9, 0.0, 2024-06-15 10:44:46.934
42.0, 50771.85341976326, -144840.46636110145, 91373.64076061736, -187500.02235174447, 91462.71246227175, -187500.02235174447, -187500.02235174447, -187500.02235174447, -0.058, 0.96, -0.216, 192.0, 0.0, 0.0, 0.0, 0.0, 0.0, 0.0, 0.0, 0.0, 0.0, 1.7184662869348357E9, 0.0, 2024-06-15 10:44:46.934
43.0, 51976.277169737485, -143442.40944891088, 92052.03855658037, -187500.02235174447, 92189.32297102487, -187500.02235174447, -187500.02235174447, -187500.02235174447, -0.058, 0.96, -0.216, 192.0, 0.0, 0.0, 0.0, 0.0, 0.0, 0.0, 0.0, 0.0, 0.0, 1.7184662869348447E9, 0.0, 2024-06-15 10:44:46.934
44.0, 56872.53855139477, -133894.75004610422, 95940.32567028113, -187500.02235174447, 95213.58105106128, -187500.02235174447, -187500.02235174447, -187500.02235174447, -0.058, 0.96, -0.216, 192.0, 0.0, 0.0, 0.0, 0.0, 0.0, 0.0, 0.0, 0.0, 0.0, 1.7184662869348545E9, 0.0, 2024-06-15 10:44:46.934
45.0, 56362.27057722457, -133760.66193111683, 95708.78394946862, -187500.02235174447, 94858.635349111, -187500.02235174447, -187500.02235174447, -187500.02235174447, -0.058, 0.96, -0.216, 192.0, 0.0, 0.0, 0.0, 0.0, 0.0, 0.0, 0.0, 0.0, 0.0, 1.7184662869348648E9, 0.0, 2024-06-15 10:44:46.934
46.0, 51410.0851309401, -143364.7371369287, 91917.36929623716, -187500.02235174447, 91861.1323071876, -187500.02235174447, -187500.02235174447, -187500.02235174447, -0.046, 0.97, -0.22, 192.0, 254.0, 144.0, 30.0, 80.0, 249.0, 32.0, 0.0, 0.0, 0.0, 1.718466286934874E9, 0.0, 2024-06-15 10:44:46.934
47.0, 51226.86788163995, -144736.10606623962, 91556.79095468414, -187500.02235174447, 91775.88275383506, -187500.02235174447, -187500.02235174447, -187500.02235174447, -0.046, 0.97, -0.22, 192.0, 0.0, 0.0, 0.0, 0.0, 0.0, 0.0, 0.0, 0.0, 0.0, 1.718466286934883E9, 0.0, 2024-06-15 10:44:46.934
48.0, 56226.43902616967, -135144.92781697845, 95435.19859733565, -187500.02235174447, 94832.52851158721, -187500.02235174447, -187500.02235174447, -187500.02235174447, -0.046, 0.97, -0.22, 192.0, 0.0, 0.0, 0.0, 0.0, 0.0, 0.0, 0.0, 0.0, 0.0, 1.718466286934893E9, 0.0, 2024-06-15 10:44:46.934
49.0, 56940.62196500564, -132733.28634897308, 96172.15796377158, -187500.02235174447, 95249.47795265651, -187500.02235174447, -187500.02235174447, -187500.02235174447, -0.046, 0.97, -0.22, 192.0, 0.0, 0.0, 0.0, 0.0, 0.0, 0.0, 0.0, 0.0, 0.0, 1.718466286934902E9, 0.0, 2024-06-15 10:44:46.934
50.0, 52209.204698706235, -141574.7647374588, 92552.38235621243, -187500.02235174447, 92339.37023155334, -187500.02235174447, -187500.02235174447, -187500.02235174447, -0.046, 0.97, -0.22, 192.0, 0.0, 0.0, 0.0, 0.0, 0.0, 0.0, 0.0, 0.0, 0.0, 1.718466286934911E9, 0.0, 2024-06-15 10:44:46.934
51.0, 50625.11421741417, -145677.5391909527, 91157.45468824562, -187500.02235174447, 91425.36269728694, -187500.02235174447, -187500.02235174447, -187500.02235174447, -0.046, 0.97, -0.22, 192.0, 0.0, 0.0, 0.0, 0.0, 0.0, 0.0, 0.0, 0.0, 0.0, 1.7184662869349203E9, 0.0, 2024-06-15 10:44:46.934
52.0, 55417.551746076555, -136700.765693279, 94794.88817392447, -187500.02235174447, 94348.23326447407, -187500.02235174447, -187500.02235174447, -187500.02235174447, -0.046, 0.97, -0.22, 192.0, 0.0, 0.0, 0.0, 0.0, 0.0, 0.0, 0.0, 0.0, 0.0, 1.7184662869349291E9, 0.0, 2024-06-15 10:44:46.934
53.0, 57335.800806975465, -132111.37141124863, 96483.78598496747, -187500.02235174447, 95525.61140365737, -187500.02235174447, -187500.02235174447, -187500.02235174447, -0.046, 0.97, -0.22, 192.0, 0.0, 0.0, 0.0, 0.0, 0.0, 0.0, 0.0, 0.0, 0.0, 1.718466286934938E9, 0.0, 2024-06-15 10:44:46.934
54.0, 53136.198596501185, -139594.40017871858, 93276.35535911983, -187500.02235174447, 92887.01032245283, -187500.02235174447, -187500.02235174447, -187500.02235174447, -0.046, 0.97, -0.22, 192.0, 0.0, 0.0, 0.0, 0.0, 0.0, 0.0, 0.0, 0.0, 0.0, 1.7184662869349468E9, 0.0, 2024-06-15 10:44:46.934
55.0, 50315.2743357747, -146051.46152394553, 90979.93713378157, -187500.02235174447, 91249.00743353456, -187500.02235174447, -187500.02235174447, -187500.02235174447, -0.046, 0.97, -0.22, 192.0, 0.0, 0.0, 0.0, 0.0, 0.0, 0.0, 0.0, 0.0, 0.0, 1.7184662869349601E9, 0.0, 2024-06-15 10:44:46.934
56.0, 54526.61121208802, -138414.42923717847, 94080.23584845495, -187500.02235174447, 93797.4415776064, -187500.02235174447, -187500.02235174447, -187500.02235174447, -0.042, 0.986, -0.22, 192.0, 254.0, 176.0, 30.0, 208.0, 249.0, 32.0, 0.0, 0.0, 0.0, 1.7184662869349697E9, 0.0, 2024-06-15 10:44:46.934
57.0, 57540.47573095271, -131908.39521984998, 96611.23563185164, -187500.02235174447, 95654.1786377643, -187500.02235174447, -187500.02235174447, -187500.02235174447, -0.042, 0.986, -0.22, 192.0, 0.0, 0.0, 0.0, 0.0, 0.0, 0.0, 0.0, 0.0, 0.0, 1.7184662869349785E9, 0.0, 2024-06-15 10:44:46.934
58.0, 54129.24189916157, -137583.70430275254, 94025.00468790588, -187500.02235174447, 93475.2635330276, -187500.02235174447, -187500.02235174447, -187500.02235174447, -0.042, 0.986, -0.22, 192.0, 0.0, 0.0, 0.0, 0.0, 0.0, 0.0, 0.0, 0.0, 0.0, 1.7184662869349875E9, 0.0, 2024-06-15 10:44:46.934
59.0, 50264.111192716504, -145869.85360024616, 90981.18883147107, -187500.02235174447, 91225.20282568966, -187500.02235174447, -187500.02235174447, -187500.02235174447, -0.042, 0.986, -0.22, 192.0, 0.0, 0.0, 0.0, 0.0, 0.0, 0.0, 0.0, 0.0, 0.0, 1.7184662869349968E9, 0.0, 2024-06-15 10:44:46.934
60.0, 53505.11413873603, -140278.96705615128, 93280.13280393276, -187500.02235174447, 93186.05431152038, -187500.02235174447, -187500.02235174447, -187500.02235174447, -0.042, 0.986, -0.22, 192.0, 0.0, 0.0, 0.0, 0.0, 0.0, 0.0, 0.0, 0.0, 0.0, 1.7184662869350336E9, 0.0, 2024-06-15 10:44:46.935
61.0, 57456.70139273422, -132199.16906346907, 96517.02302897252, -187500.02235174447, 95638.64417536787, -187500.02235174447, -187500.02235174447, -187500.02235174447, -0.042, 0.986, -0.22, 192.0, 0.0, 0.0, 0.0, 0.0, 0.0, 0.0, 0.0, 0.0, 0.0, 1.7184662869350476E9, 0.0, 2024-06-15 10:44:46.935
62.0, 55059.543855135904, -135759.31021682147, 94737.22067322978, -187500.02235174447, 94063.15911569109, -187500.02235174447, -187500.02235174447, -187500.02235174447, -0.042, 0.986, -0.22, 192.0, 0.0, 0.0, 0.0, 0.0, 0.0, 0.0, 0.0, 0.0, 0.0, 1.718466286935062E9, 0.0, 2024-06-15 10:44:46.935
63.0, 50520.262184174324, -145123.88648079472, 91212.21646216113, -187500.02235174447, 91372.25495246112, -187500.02235174447, -187500.02235174447, -187500.02235174447, -0.042, 0.986, -0.22, 192.0, 0.0, 0.0, 0.0, 0.0, 0.0, 0.0, 0.0, 0.0, 0.0, 1.7184662869351144E9, 0.0, 2024-06-15 10:44:46.935
64.0, 52559.389479087535, -142025.59942312236, 92560.2948737496, -187500.02235174447, 92629.60763330551, -187500.02235174447, -187500.02235174447, -187500.02235174447, -0.042, 0.986, -0.22, 192.0, 0.0, 0.0, 0.0, 0.0, 0.0, 0.0, 0.0, 0.0, 0.0, 1.718466286935125E9, 0.0, 2024-06-15 10:44:46.935
65.0, 57195.56596226287, -132848.28607419564, 96276.38414816668, -187500.02235174447, 95501.02448475653, -187500.02235174447, -187500.02235174447, -187500.02235174447, -0.042, 0.986, -0.22, 192.0, 0.0, 0.0, 0.0, 0.0, 0.0, 0.0, 0.0, 0.0, 0.0, 1.7184662869351506E9, 0.0, 2024-06-15 10:44:46.935
66.0, 55929.76432201437, -134160.668749889, 95394.45136719363, -187500.02235174447, 94620.65632589535, -187500.02235174447, -187500.02235174447, -187500.02235174447, -0.052000000000000005, 0.974, -0.228, 192.0, 254.0, 96.0, 30.0, 112.0, 248.0, 224.0, 0.0, 0.0, 0.0, 1.71846628693518E9, 0.0, 2024-06-15 10:44:46.935
67.0, 51049.93147253174, -143865.97500633897, 91635.29028121117, -187500.02235174447, 91681.2901713002, -187500.02235174447, -187500.02235174447, -187500.02235174447, -0.052000000000000005, 0.974, -0.228, 192.0, 0.0, 0.0, 0.0, 0.0, 0.0, 0.0, 0.0, 0.0, 0.0, 1.7184662869351897E9, 0.0, 2024-06-15 10:44:46.935
68.0, 51756.559521741816, -143499.24993506074, 91965.93963693854, -187500.02235174447, 92165.54071492443, -187500.02235174447, -187500.02235174447, -187500.02235174447, -0.052000000000000005, 0.974, -0.228, 192.0, 0.0, 0.0, 0.0, 0.0, 0.0, 0.0, 0.0, 0.0, 0.0, 1.7184662869351988E9, 0.0, 2024-06-15 10:44:46.935
69.0, 56739.1433404855, -133870.8560312815, 95865.13440193348, -187500.02235174447, 95228.80258903535, -187500.02235174447, -187500.02235174447, -187500.02235174447, -0.052000000000000005, 0.974, -0.228, 192.0, 0.0, 0.0, 0.0, 0.0, 0.0, 0.0, 0.0, 0.0, 0.0, 1.7184662869352243E9, 0.0, 2024-06-15 10:44:46.935
70.0, 56664.108534349034, -132906.84764466854, 95931.02734458772, -187500.02235174447, 95093.41807286955, -187500.02235174447, -187500.02235174447, -187500.02235174447, -0.052000000000000005, 0.974, -0.228, 192.0, 0.0, 0.0, 0.0, 0.0, 0.0, 0.0, 0.0, 0.0, 0.0, 1.7184662869352336E9, 0.0, 2024-06-15 10:44:46.935
71.0, 51767.020138146894, -142260.51625734763, 92180.67284592066, -187500.02235174447, 92102.01705718244, -187500.02235174447, -187500.02235174447, -187500.02235174447, -0.052000000000000005, 0.974, -0.228, 192.0, 0.0, 0.0, 0.0, 0.0, 0.0, 0.0, 0.0, 0.0, 0.0, 1.7184662869352434E9, 0.0, 2024-06-15 10:44:46.935
72.0, 51039.09087647091, -144707.8087577592, 91436.5832730035, -187500.02235174447, 91741.7516400518, -187500.02235174447, -187500.02235174447, -187500.02235174447, -0.052000000000000005, 0.974, -0.228, 192.0, 0.0, 0.0, 0.0, 0.0, 0.0, 0.0, 0.0, 0.0, 0.0, 1.718466286935253E9, 0.0, 2024-06-15 10:44:46.935
73.0, 56079.386899398196, -135221.6613556935, 95292.43800549961, -187500.02235174447, 94819.96683120333, -187500.02235174447, -187500.02235174447, -187500.02235174447, -0.052000000000000005, 0.974, -0.228, 192.0, 0.0, 0.0, 0.0, 0.0, 0.0, 0.0, 0.0, 0.0, 0.0, 1.718466286935262E9, 0.0, 2024-06-15 10:44:46.935
74.0, 57237.69900056112, -132012.68845947844, 96331.79412267139, -187500.02235174447, 95467.98860645159, -187500.02235174447, -187500.02235174447, -187500.02235174447, -0.052000000000000005, 0.974, -0.228, 192.0, 0.0, 0.0, 0.0, 0.0, 0.0, 0.0, 0.0, 0.0, 0.0, 1.7184662869352713E9, 0.0, 2024-06-15 10:44:46.935
75.0, 52664.91206466104, -140373.51493519725, 92844.02791786527, -187500.02235174447, 92629.60763330551, -187500.02235174447, -187500.02235174447, -187500.02235174447, -0.052000000000000005, 0.974, -0.228, 192.0, 0.0, 0.0, 0.0, 0.0, 0.0, 0.0, 0.0, 0.0, 0.0, 1.71846628693528E9, 0.0, 2024-06-15 10:44:46.935
76.0, 50581.46126049296, -145400.9140015738, 91107.47618764355, -187500.02235174447, 91458.91266571435, -187500.02235174447, -187500.02235174447, -187500.02235174447, -0.062, 0.972, -0.212, 192.0, 254.0, 16.0, 30.0, 96.0, 249.0, 96.0, 0.0, 0.0, 0.0, 1.718466286935292E9, 0.0, 2024-06-15 10:44:46.935
77.0, 55237.28492704451, -136860.6924248567, 94563.54761881205, -187500.02235174447, 94272.1032228593, -187500.02235174447, -187500.02235174447, -187500.02235174447, -0.062, 0.972, -0.212, 192.0, 0.0, 0.0, 0.0, 0.0, 0.0, 0.0, 0.0, 0.0, 0.0, 1.718466286935302E9, 0.0, 2024-06-15 10:44:46.935
78.0, 57610.816670753564, -131547.97334050815, 96546.14735199779, -187500.02235174447, 95691.8413271715, -187500.02235174447, -187500.02235174447, -187500.02235174447, -0.062, 0.972, -0.212, 192.0, 0.0, 0.0, 0.0, 0.0, 0.0, 0.0, 0.0, 0.0, 0.0, 1.7184662869353108E9, 0.0, 2024-06-15 10:44:46.935
79.0, 53631.71441933089, -138431.03658330877, 93526.6725452748, -187500.02235174447, 93192.64807613469, -187500.02235174447, -187500.02235174447, -187500.02235174447, -0.062, 0.972, -0.212, 192.0, 0.0, 0.0, 0.0, 0.0, 0.0, 0.0, 0.0, 0.0, 0.0, 1.7184662869353204E9, 0.0, 2024-06-15 10:44:46.935
80.0, 50379.625008061535, -145603.0184749387, 90963.28508416237, -187500.02235174447, 91351.13255395085, -187500.02235174447, -187500.02235174447, -187500.02235174447, -0.062, 0.972, -0.212, 192.0, 0.0, 0.0, 0.0, 0.0, 0.0, 0.0, 0.0, 0.0, 0.0, 1.7184662869353292E9, 0.0, 2024-06-15 10:44:46.935
81.0, 54318.33765725347, -138652.49766737196, 93787.60681004605, -187500.02235174447, 93706.84995732903, -187500.02235174447, -187500.02235174447, -187500.02235174447, -0.062, 0.972, -0.212, 192.0, 0.0, 0.0, 0.0, 0.0, 0.0, 0.0, 0.0, 0.0, 0.0, 1.7184662869353387E9, 0.0, 2024-06-15 10:44:46.935
82.0, 57773.31385294365, -131523.1405524183, 96588.45920425167, -187500.02235174447, 95789.18317427435, -187500.02235174447, -187500.02235174447, -187500.02235174447, -0.062, 0.972, -0.212, 192.0, 0.0, 0.0, 0.0, 0.0, 0.0, 0.0, 0.0, 0.0, 0.0, 1.7184662869353476E9, 0.0, 2024-06-15 10:44:46.935
83.0, 54692.55056292422, -136457.46695488298, 94287.16829862217, -187500.02235174447, 93828.82342682165, -187500.02235174447, -187500.02235174447, -187500.02235174447, -0.062, 0.972, -0.212, 192.0, 0.0, 0.0, 0.0, 0.0, 0.0, 0.0, 0.0, 0.0, 0.0, 1.7184662869353576E9, 0.0, 2024-06-15 10:44:46.935
84.0, 50455.240959553834, -145241.277842674, 91032.39667801818, -187500.02235174447, 91385.95657181223, -187500.02235174447, -187500.02235174447, -187500.02235174447, -0.062, 0.972, -0.212, 192.0, 0.0, 0.0, 0.0, 0.0, 0.0, 0.0, 0.0, 0.0, 0.0, 1.7184662869353669E9, 0.0, 2024-06-15 10:44:46.935
85.0, 53335.97848844272, -140468.93453227694, 93006.9050797111, -187500.02235174447, 93097.85432789974, -187500.02235174447, -187500.02235174447, -187500.02235174447, -0.062, 0.972, -0.212, 192.0, 0.0, 0.0, 0.0, 0.0, 0.0, 0.0, 0.0, 0.0, 0.0, 1.7184662869353757E9, 0.0, 2024-06-15 10:44:46.935
86.0, 57667.8136191146, -131901.48853081328, 96446.27975777147, -187500.02235174447, 95716.27178386114, -187500.02235174447, -187500.02235174447, -187500.02235174447, -0.062, 0.972, -0.212, 192.0, 0.0, 0.0, 0.0, 0.0, 0.0, 0.0, 0.0, 0.0, 0.0, 1.7184662869353848E9, 0.0, 2024-06-15 10:44:46.935
87.0, 55649.74166747829, -134673.61893339382, 94980.69822558144, -187500.02235174447, 94384.46544223612, -187500.02235174447, -187500.02235174447, -187500.02235174447, -0.06, 0.964, -0.21, 192.0, 254.0, 32.0, 30.0, 32.0, 249.0, 112.0, 0.0, 0.0, 0.0, 1.7184662869353936E9, 0.0, 2024-06-15 10:44:46.935
88.0, 50831.800798392396, -144282.67857821926, 91323.68461175975, -187500.02235174447, 91579.58973402856, -187500.02235174447, -187500.02235174447, -187500.02235174447, -0.06, 0.964, -0.21, 192.0, 0.0, 0.0, 0.0, 0.0, 0.0, 0.0, 0.0, 0.0, 0.0, 1.718466286935404E9, 0.0, 2024-06-15 10:44:46.935
89.0, 52378.541514699646, -142166.28130272406, 92268.33638767438, -187500.02235174447, 92518.31829766254, -187500.02235174447, -187500.02235174447, -187500.02235174447, -0.06, 0.964, -0.21, 192.0, 0.0, 0.0, 0.0, 0.0, 0.0, 0.0, 0.0, 0.0, 0.0, 1.718466286935413E9, 0.0, 2024-06-15 10:44:46.935
90.0, 57276.09929753534, -132722.49045640117, 96086.41667204103, -187500.02235174447, 95465.59696979487, -187500.02235174447, -187500.02235174447, -187500.02235174447, -0.06, 0.964, -0.21, 192.0, 0.0, 0.0, 0.0, 0.0, 0.0, 0.0, 0.0, 0.0, 0.0, 1.718466286935422E9, 0.0, 2024-06-15 10:44:46.935
91.0, 56448.45890384423, -133206.15985466956, 95571.23131409065, -187500.02235174447, 94869.61005563856, -187500.02235174447, -187500.02235174447, -187500.02235174447, -0.06, 0.964, -0.21, 192.0, 0.0, 0.0, 0.0, 0.0, 0.0, 0.0, 0.0, 0.0, 0.0, 1.7184662869354308E9, 0.0, 2024-06-15 10:44:46.935
92.0, 51376.73632821278, -142950.35814647176, 91749.68650933343, -187500.02235174447, 91868.5307346023, -187500.02235174447, -187500.02235174447, -187500.02235174447, -0.06, 0.964, -0.21, 192.0, 0.0, 0.0, 0.0, 0.0, 0.0, 0.0, 0.0, 0.0, 0.0, 1.7184662869354398E9, 0.0, 2024-06-15 10:44:46.935
93.0, 51512.41141705649, -143635.03678262673, 91641.99580454777, -187500.02235174447, 91984.60334355872, -187500.02235174447, -187500.02235174447, -187500.02235174447, -0.06, 0.964, -0.21, 192.0, 0.0, 0.0, 0.0, 0.0, 0.0, 0.0, 0.0, 0.0, 0.0, 1.7184662869354486E9, 0.0, 2024-06-15 10:44:46.935
94.0, 56680.02297640121, -133893.67716237035, 95588.37510208787, -187500.02235174447, 95073.68148251552, -187500.02235174447, -187500.02235174447, -187500.02235174447, -0.06, 0.964, -0.21, 192.0, 0.0, 0.0, 0.0, 0.0, 0.0, 0.0, 0.0, 0.0, 0.0, 1.7184662869354577E9, 0.0, 2024-06-15 10:44:46.935
95.0, 57102.96268498453, -132071.89823054054, 96060.1757240505, -187500.02235174447, 95260.07267952833, -187500.02235174447, -187500.02235174447, -187500.02235174447, -0.06, 0.964, -0.21, 192.0, 0.0, 0.0, 0.0, 0.0, 0.0, 0.0, 0.0, 0.0, 0.0, 1.7184662869354663E9, 0.0, 2024-06-15 10:44:46.935
96.0, 52137.61206121589, -141259.71689936126, 92333.67053671724, -187500.02235174447, 92294.75614962056, -187500.02235174447, -187500.02235174447, -187500.02235174447, -0.06, 0.964, -0.21, 192.0, 0.0, 0.0, 0.0, 0.0, 0.0, 0.0, 0.0, 0.0, 0.0, 1.718466286935475E9, 0.0, 2024-06-15 10:44:46.935
97.0, 50853.884321914236, -144705.5065280803, 91194.33506659688, -187500.02235174447, 91599.8180627606, -187500.02235174447, -187500.02235174447, -187500.02235174447, -0.062, 0.9420000000000001, -0.202, 192.0, 254.0, 16.0, 29.0, 112.0, 249.0, 176.0, 0.0, 0.0, 0.0, 1.718466286935486E9, 0.0, 2024-06-15 10:44:46.935
98.0, 55896.5943332427, -135412.6570120641, 94954.97136771338, -187500.02235174447, 94574.38821487287, -187500.02235174447, -187500.02235174447, -187500.02235174447, -0.062, 0.9420000000000001, -0.202, 192.0, 0.0, 0.0, 0.0, 0.0, 0.0, 0.0, 0.0, 0.0, 0.0, 1.718466286935495E9, 0.0, 2024-06-15 10:44:46.935
99.0, 57572.88576041291, -131358.56465799388, 96399.51990837097, -187500.02235174447, 95532.18281652723, -187500.02235174447, -187500.02235174447, -187500.02235174447, -0.062, 0.9420000000000001, -0.202, 192.0, 0.0, 0.0, 0.0, 0.0, 0.0, 0.0, 0.0, 0.0, 0.0, 1.7184662869355035E9, 0.0, 2024-06-15 10:44:46.935
100.0, 53034.431103996176, -139378.97406565835, 93002.61354477568, -187500.02235174447, 92788.84146080512, -187500.02235174447, -187500.02235174447, -187500.02235174447, -0.062, 0.9420000000000001, -0.202, 192.0, 0.0, 0.0, 0.0, 0.0, 0.0, 0.0, 0.0, 0.0, 0.0, 1.7184662869355125E9, 0.0, 2024-06-15 10:44:46.935
101.0, 50443.95332860391, -145303.34863702639, 90930.20450236852, -187500.02235174447, 91352.83128652946, -187500.02235174447, -187500.02235174447, -187500.02235174447, -0.062, 0.9420000000000001, -0.202, 192.0, 0.0, 0.0, 0.0, 0.0, 0.0, 0.0, 0.0, 0.0, 0.0, 1.7184662869355214E9, 0.0, 2024-06-15 10:44:46.935
102.0, 54950.132066027174, -137202.09296966708, 94186.22782066201, -187500.02235174447, 93959.60348362965, -187500.02235174447, -187500.02235174447, -187500.02235174447, -0.062, 0.9420000000000001, -0.202, 192.0, 0.0, 0.0, 0.0, 0.0, 0.0, 0.0, 0.0, 0.0, 0.0, 1.7184662869355304E9, 0.0, 2024-06-15 10:44:46.935
103.0, 57802.1923067799, -131124.8101144803, 96536.82667455992, -187500.02235174447, 95640.45466666874, -187500.02235174447, -187500.02235174447, -187500.02235174447, -0.062, 0.9420000000000001, -0.202, 192.0, 0.0, 0.0, 0.0, 0.0, 0.0, 0.0, 0.0, 0.0, 0.0, 1.7184662869355392E9, 0.0, 2024-06-15 10:44:46.935
104.0, 54082.23618057206, -137351.2238086729, 93786.37746410102, -187500.02235174447, 93366.09761310788, -187500.02235174447, -187500.02235174447, -187500.02235174447, -0.062, 0.9420000000000001, -0.202, 192.0, 0.0, 0.0, 0.0, 0.0, 0.0, 0.0, 0.0, 0.0, 0.0, 1.718466286935548E9, 0.0, 2024-06-15 10:44:46.935
105.0, 50315.989591597274, -145308.15426208428, 90873.63223715214, -187500.02235174447, 91253.25426498106, -187500.02235174447, -187500.02235174447, -187500.02235174447, -0.062, 0.9420000000000001, -0.202, 192.0, 0.0, 0.0, 0.0, 0.0, 0.0, 0.0, 0.0, 0.0, 0.0, 1.718466286935557E9, 0.0, 2024-06-15 10:44:46.935
106.0, 53922.08593154978, -139081.2711812581, 93379.93334292571, -187500.02235174447, 93325.23862424358, -187500.02235174447, -187500.02235174447, -187500.02235174447, -0.062, 0.9420000000000001, -0.202, 192.0, 0.0, 0.0, 0.0, 0.0, 0.0, 0.0, 0.0, 0.0, 0.0, 1.718466286935566E9, 0.0, 2024-06-15 10:44:46.935
107.0, 57802.371120735545, -131282.12169195674, 96498.35932235233, -187500.02235174447, 95632.96683227622, -187500.02235174447, -187500.02235174447, -187500.02235174447, -0.068, 0.936, -0.188, 192.0, 253.0, 224.0, 29.0, 64.0, 250.0, 32.0, 0.0, 0.0, 0.0, 1.718466286935575E9, 0.0, 2024-06-15 10:44:46.935
108.0, 55028.74315127649, -135500.45466428457, 94479.88503931584, -187500.02235174447, 93898.89614568904, -187500.02235174447, -187500.02235174447, -187500.02235174447, -0.068, 0.936, -0.188, 192.0, 0.0, 0.0, 0.0, 0.0, 0.0, 0.0, 0.0, 0.0, 0.0, 1.7184662869355838E9, 0.0, 2024-06-15 10:44:46.935
109.0, 50436.46549421138, -144800.38968329306, 90991.11300600923, -187500.02235174447, 91294.33677128992, -187500.02235174447, -187500.02235174447, -187500.02235174447, -0.068, 0.936, -0.188, 192.0, 0.0, 0.0, 0.0, 0.0, 0.0, 0.0, 0.0, 0.0, 0.0, 1.718466286935593E9, 0.0, 2024-06-15 10:44:46.935
110.0, 52894.464480217044, -140940.33282283938, 92598.33754281254, -187500.02235174447, 92716.77943668122, -187500.02235174447, -187500.02235174447, -187500.02235174447, -0.068, 0.936, -0.188, 192.0, 0.0, 0.0, 0.0, 0.0, 0.0, 0.0, 0.0, 0.0, 0.0, 1.7184662869356017E9, 0.0, 2024-06-15 10:44:46.935
111.0, 57578.652510482374, -131871.626600221, 96276.49590688896, -187500.02235174447, 95497.62701959933, -187500.02235174447, -187500.02235174447, -187500.02235174447, -0.068, 0.936, -0.188, 192.0, 0.0, 0.0, 0.0, 0.0, 0.0, 0.0, 0.0, 0.0, 0.0, 1.7184662869356103E9, 0.0, 2024-06-15 10:44:46.935
112.0, 55978.73699411595, -133817.18949284428, 95172.3644342857, -187500.02235174447, 94457.86857102736, -187500.02235174447, -187500.02235174447, -187500.02235174447, -0.068, 0.936, -0.188, 192.0, 0.0, 0.0, 0.0, 0.0, 0.0, 0.0, 0.0, 0.0, 0.0, 1.718466286935619E9, 0.0, 2024-06-15 10:44:46.935
113.0, 50928.76266583952, -143683.85299251712, 91374.33366469547, -187500.02235174447, 91556.79095468414, -187500.02235174447, -187500.02235174447, -187500.02235174447, -0.068, 0.936, -0.188, 192.0, 0.0, 0.0, 0.0, 0.0, 0.0, 0.0, 0.0, 0.0, 0.0, 1.718466286935628E9, 0.0, 2024-06-15 10:44:46.935
114.0, 51955.154771227215, -142627.95658444843, 91885.04867375478, -187500.02235174447, 92136.01406049897, -187500.02235174447, -187500.02235174447, -187500.02235174447, -0.068, 0.936, -0.188, 192.0, 0.0, 0.0, 0.0, 0.0, 0.0, 0.0, 0.0, 0.0, 0.0, 1.718466286935637E9, 0.0, 2024-06-15 10:44:46.935
115.0, 57082.53319055238, -132926.65129025595, 95821.1685205899, -187500.02235174447, 95144.24593976092, -187500.02235174447, -187500.02235174447, -187500.02235174447, -0.068, 0.936, -0.188, 192.0, 0.0, 0.0, 0.0, 0.0, 0.0, 0.0, 0.0, 0.0, 0.0, 1.7184662869356663E9, 0.0, 2024-06-15 10:44:46.935
116.0, 56716.344561141086, -132561.5355445785, 95687.37097828044, -187500.02235174447, 94855.01436650925, -187500.02235174447, -187500.02235174447, -187500.02235174447, -0.068, 0.936, -0.188, 192.0, 0.0, 0.0, 0.0, 0.0, 0.0, 0.0, 0.0, 0.0, 0.0, 1.7184662869356756E9, 0.0, 2024-06-15 10:44:46.935
117.0, 51636.35184006117, -142203.18403281976, 91884.93691503251, -187500.02235174447, 91888.20026972298, -187500.02235174447, -187500.02235174447, -187500.02235174447, -0.07, 0.932, -0.182, 192.0, 253.0, 208.0, 29.0, 32.0, 250.0, 80.0, 0.0, 0.0, 0.0, 1.7184662869356847E9, 0.0, 2024-06-15 10:44:46.935
118.0, 51260.127277389445, -143955.20317020456, 91358.84390578794, -187500.02235174447, 91686.40872078047, -187500.02235174447, -187500.02235174447, -187500.02235174447, -0.07, 0.932, -0.182, 192.0, 0.0, 0.0, 0.0, 0.0, 0.0, 0.0, 0.0, 0.0, 0.0, 1.7184662869357097E9, 0.0, 2024-06-15 10:44:46.935
119.0, 56481.718299593726, -134268.15828897458, 95271.36031047825, -187500.02235174447, 94728.90582429241, -187500.02235174447, -187500.02235174447, -187500.02235174447, -0.07, 0.932, -0.182, 192.0, 0.0, 0.0, 0.0, 0.0, 0.0, 0.0, 0.0, 0.0, 0.0, 1.7184662869357207E9, 0.0, 2024-06-15 10:44:46.935
120.0, 57386.22634246664, -131579.5116519346, 96140.55259711177, -187500.02235174447, 95223.72874304399, -187500.02235174447, -187500.02235174447, -187500.02235174447, -0.07, 0.932, -0.182, 192.0, 0.0, 0.0, 0.0, 0.0, 0.0, 0.0, 0.0, 0.0, 0.0, 1.7184662869357295E9, 0.0, 2024-06-15 10:44:46.935
121.0, 52506.90758310647, -140403.91330765645, 92513.89265226039, -187500.02235174447, 92339.10201061988, -187500.02235174447, -187500.02235174447, -187500.02235174447, -0.07, 0.932, -0.182, 192.0, 0.0, 0.0, 0.0, 0.0, 0.0, 0.0, 0.0, 0.0, 0.0, 1.7184662869357383E9, 0.0, 2024-06-15 10:44:46.935
122.0, 50672.544619148335, -144862.25931194535, 90969.90120052114, -187500.02235174447, 91336.69332703273, -187500.02235174447, -187500.02235174447, -187500.02235174447, -0.07, 0.932, -0.182, 192.0, 0.0, 0.0, 0.0, 0.0, 0.0, 0.0, 0.0, 0.0, 0.0, 1.7184662869357476E9, 0.0, 2024-06-15 10:44:46.935
123.0, 55572.13641072946, -135947.55660862406, 94563.43586008977, -187500.02235174447, 94177.734157769, -187500.02235174447, -187500.02235174447, -187500.02235174447, -0.07, 0.932, -0.182, 192.0, 0.0, 0.0, 0.0, 0.0, 0.0, 0.0, 0.0, 0.0, 0.0, 1.7184662869357564E9, 0.0, 2024-06-15 10:44:46.935
124.0, 57694.21102931631, -131111.4884747849, 96368.85331497829, -187500.02235174447, 95409.82936737889, -187500.02235174447, -187500.02235174447, -187500.02235174447, -0.07, 0.932, -0.182, 192.0, 0.0, 0.0, 0.0, 0.0, 0.0, 0.0, 0.0, 0.0, 0.0, 1.7184662869357655E9, 0.0, 2024-06-15 10:44:46.935
125.0, 53420.02104759467, -138513.06748545976, 93219.71603867007, -187500.02235174447, 92852.3651185471, -187500.02235174447, -187500.02235174447, -187500.02235174447, -0.07, 0.932, -0.182, 192.0, 0.0, 0.0, 0.0, 0.0, 0.0, 0.0, 0.0, 0.0, 0.0, 1.7184662869357743E9, 0.0, 2024-06-15 10:44:46.935
126.0, 50345.13626636699, -145256.25351145907, 90805.2806026078, -187500.02235174447, 91152.89493237674, -187500.02235174447, -187500.02235174447, -187500.02235174447, -0.07, 0.932, -0.182, 192.0, 0.0, 0.0, 0.0, 0.0, 0.0, 0.0, 0.0, 0.0, 0.0, 1.718466286935804E9, 0.0, 2024-06-15 10:44:46.935
127.0, 54595.05225361017, -137764.6640258627, 93844.58140666263, -187500.02235174447, 93605.39538924639, -187500.02235174447, -187500.02235174447, -187500.02235174447, -0.07, 0.932, -0.182, 192.0, 0.0, 0.0, 0.0, 0.0, 0.0, 0.0, 0.0, 0.0, 0.0, 1.718466286935818E9, 0.0, 2024-06-15 10:44:46.935
128.0, 57833.64121122852, -131002.88134847659, 96489.88801120377, -187500.02235174447, 95515.46371167466, -187500.02235174447, -187500.02235174447, -187500.02235174447, -0.07, 0.9380000000000001, -0.17400000000000002, 192.0, 253.0, 208.0, 29.0, 80.0, 250.0, 144.0, 0.0, 0.0, 0.0, 1.7184662869358332E9, 0.0, 2024-06-15 10:44:46.935
129.0, 54389.125631943425, -136582.14498545468, 93972.34397796917, -187500.02235174447, 93415.62907882084, -187500.02235174447, -187500.02235174447, -187500.02235174447, -0.07, 0.9380000000000001, -0.17400000000000002, 192.0, 0.0, 0.0, 0.0, 0.0, 0.0, 0.0, 0.0, 0.0, 0.0, 1.7184662869358659E9, 0.0, 2024-06-15 10:44:46.935
130.0, 50312.9721060958, -145049.00813686947, 90855.23675146542, -187500.02235174447, 91135.95231007962, -187500.02235174447, -187500.02235174447, -187500.02235174447, -0.07, 0.9380000000000001, -0.17400000000000002, 192.0, 0.0, 0.0, 0.0, 0.0, 0.0, 0.0, 0.0, 0.0, 0.0, 1.718466286935877E9, 0.0, 2024-06-15 10:44:46.935
131.0, 53494.631170586494, -139702.60497362673, 93024.89823399762, -187500.02235174447, 92946.73418363741, -187500.02235174447, -187500.02235174447, -187500.02235174447, -0.07, 0.9380000000000001, -0.17400000000000002, 192.0, 0.0, 0.0, 0.0, 0.0, 0.0, 0.0, 0.0, 0.0, 0.0, 1.7184662869358861E9, 0.0, 2024-06-15 10:44:46.935
132.0, 57680.50940996521, -131392.8745857328, 96363.35478584228, -187500.02235174447, 95426.39201002027, -187500.02235174447, -187500.02235174447, -187500.02235174447, -0.07, 0.9380000000000001, -0.17400000000000002, 192.0, 0.0, 0.0, 0.0, 0.0, 0.0, 0.0, 0.0, 0.0, 0.0, 1.7184662869358952E9, 0.0, 2024-06-15 10:44:46.935
133.0, 55290.97381722616, -134835.0208801056, 94662.36468104896, -187500.02235174447, 93933.74251529486, -187500.02235174447, -187500.02235174447, -187500.02235174447, -0.07, 0.9380000000000001, -0.17400000000000002, 192.0, 0.0, 0.0, 0.0, 0.0, 0.0, 0.0, 0.0, 0.0, 0.0, 1.718466286935904E9, 0.0, 2024-06-15 10:44:46.935
134.0, 50498.93861996396, -144403.93679188928, 91045.15952410216, -187500.02235174447, 91230.29902342547, -187500.02235174447, -187500.02235174447, -187500.02235174447, -0.07, 0.9380000000000001, -0.17400000000000002, 192.0, 0.0, 0.0, 0.0, 0.0, 0.0, 0.0, 0.0, 0.0, 0.0, 1.7184662869359176E9, 0.0, 2024-06-15 10:44:46.935
135.0, 52451.54231209068, -141568.3274350557, 92273.63375111029, -187500.02235174447, 92360.51498180807, -187500.02235174447, -187500.02235174447, -187500.02235174447, -0.07, 0.9380000000000001, -0.17400000000000002, 192.0, 0.0, 0.0, 0.0, 0.0, 0.0, 0.0, 0.0, 0.0, 0.0, 1.7184662869359477E9, 0.0, 2024-06-15 10:44:46.935
136.0, 57354.330403128915, -132145.77074596533, 96107.65082927357, -187500.02235174447, 95261.97257780703, -187500.02235174447, -187500.02235174447, -187500.02235174447, -0.07, 0.9380000000000001, -0.17400000000000002, 192.0, 0.0, 0.0, 0.0, 0.0, 0.0, 0.0, 0.0, 0.0, 0.0, 1.7184662869359567E9, 0.0, 2024-06-15 10:44:46.935
137.0, 56155.58399624634, -133277.93130611556, 95338.97433745555, -187500.02235174447, 94473.22421946815, -187500.02235174447, -187500.02235174447, -187500.02235174447, -0.07, 0.9380000000000001, -0.17400000000000002, 192.0, 0.0, 0.0, 0.0, 0.0, 0.0, 0.0, 0.0, 0.0, 0.0, 1.7184662869359665E9, 0.0, 2024-06-15 10:44:46.935
138.0, 51015.12980641482, -143158.43053560623, 91483.83486078202, -187500.02235174447, 91521.47519844475, -187500.02235174447, -187500.02235174447, -187500.02235174447, -0.07, 0.962, -0.17400000000000002, 192.0, 253.0, 208.0, 30.0, 16.0, 250.0, 144.0, 0.0, 0.0, 0.0, 1.7184662869359756E9, 0.0, 2024-06-15 10:44:46.935
139.0, 51540.529911581274, -143132.6366225048, 91653.64106340898, -187500.02235174447, 91857.64543505257, -187500.02235174447, -187500.02235174447, -187500.02235174447, -0.07, 0.962, -0.17400000000000002, 192.0, 0.0, 0.0, 0.0, 0.0, 0.0, 0.0, 0.0, 0.0, 0.0, 1.7184662869359932E9, 0.0, 2024-06-15 10:44:46.935
140.0, 56755.95185231589, -133294.4045417791, 95640.11939050192, -187500.02235174447, 94923.92479466496, -187500.02235174447, -187500.02235174447, -187500.02235174447, -0.07, 0.962, -0.17400000000000002, 192.0, 0.0, 0.0, 0.0, 0.0, 0.0, 0.0, 0.0, 0.0, 0.0, 1.7184662869360218E9, 0.0, 2024-06-15 10:44:46.936
141.0, 56820.637800769546, -132089.46670168242, 95857.75832626324, -187500.02235174447, 94898.153233308, -187500.02235174447, -187500.02235174447, -187500.02235174447, -0.07, 0.962, -0.17400000000000002, 192.0, 0.0, 0.0, 0.0, 0.0, 0.0, 0.0, 0.0, 0.0, 0.0, 1.7184662869360392E9, 0.0, 2024-06-15 10:44:46.936
142.0, 51757.85592292022, -141503.73089357984, 92076.5807719923, -187500.02235174447, 91948.66173847458, -187500.02235174447, -187500.02235174447, -187500.02235174447, -0.07, 0.962, -0.17400000000000002, 192.0, 0.0, 0.0, 0.0, 0.0, 0.0, 0.0, 0.0, 0.0, 0.0, 1.7184662869360497E9, 0.0, 2024-06-15 10:44:46.936
143.0, 50836.85229263929, -144272.68734844774, 91194.51388055252, -187500.02235174447, 91476.57054383404, -187500.02235174447, -187500.02235174447, -187500.02235174447, -0.07, 0.962, -0.17400000000000002, 192.0, 0.0, 0.0, 0.0, 0.0, 0.0, 0.0, 0.0, 0.0, 0.0, 1.718466286936061E9, 0.0, 2024-06-15 10:44:46.936
144.0, 55970.332738200756, -134767.3174461505, 95030.85554013915, -187500.02235174447, 94460.9978152511, -187500.02235174447, -187500.02235174447, -187500.02235174447, -0.07, 0.962, -0.17400000000000002, 192.0, 0.0, 0.0, 0.0, 0.0, 0.0, 0.0, 0.0, 0.0, 0.0, 1.7184662869360719E9, 0.0, 2024-06-15 10:44:46.936
145.0, 57337.99127793209, -131222.35312728325, 96265.47649687249, -187500.02235174447, 95233.6305658377, -187500.02235174447, -187500.02235174447, -187500.02235174447, -0.07, 0.962, -0.17400000000000002, 192.0, 0.0, 0.0, 0.0, 0.0, 0.0, 0.0, 0.0, 0.0, 0.0, 1.718466286936082E9, 0.0, 2024-06-15 10:44:46.936
146.0, 52625.863567097615, -139625.13382734463, 92754.57623655513, -187500.02235174447, 92442.43412523677, -187500.02235174447, -187500.02235174447, -187500.02235174447, -0.07, 0.962, -0.17400000000000002, 192.0, 0.0, 0.0, 0.0, 0.0, 0.0, 0.0, 0.0, 0.0, 0.0, 1.718466286936095E9, 0.0, 2024-06-15 10:44:46.936
147.0, 50338.25192907476, -144960.20465614853, 90890.15017630461, -187500.02235174447, 91200.28063062199, -187500.02235174447, -187500.02235174447, -187500.02235174447, -0.07, 0.962, -0.17400000000000002, 192.0, 0.0, 0.0, 0.0, 0.0, 0.0, 0.0, 0.0, 0.0, 0.0, 1.718466286936124E9, 0.0, 2024-06-15 10:44:46.936
148.0, 55030.64304955519, -136487.10536803072, 94315.15268268021, -187500.02235174447, 93910.3178871057, -187500.02235174447, -187500.02235174447, -187500.02235174447, -0.064, 0.982, -0.184, 192.0, 254.0, 0.0, 30.0, 176.0, 250.0, 64.0, 0.0, 0.0, 0.0, 1.7184662869361384E9, 0.0, 2024-06-15 10:44:46.936
149.0, 57588.19670536479, -130849.21310534634, 96459.98137712257, -187500.02235174447, 95399.99459981854, -187500.02235174447, -187500.02235174447, -187500.02235174447, -0.064, 0.982, -0.184, 192.0, 0.0, 0.0, 0.0, 0.0, 0.0, 0.0, 0.0, 0.0, 0.0, 1.7184662869361737E9, 0.0, 2024-06-15 10:44:46.936
150.0, 53564.65918596497, -137677.00048410898, 93486.88644014436, -187500.02235174447, 92982.00523638788, -187500.02235174447, -187500.02235174447, -187500.02235174447, -0.064, 0.982, -0.184, 192.0, 0.0, 0.0, 0.0, 0.0, 0.0, 0.0, 0.0, 0.0, 0.0, 1.7184662869361832E9, 0.0, 2024-06-15 10:44:46.936
151.0, 50104.85501347244, -145121.6513063492, 90788.53914601078, -187500.02235174447, 91067.75713774648, -187500.02235174447, -187500.02235174447, -187500.02235174447, -0.064, 0.982, -0.184, 192.0, 0.0, 0.0, 0.0, 0.0, 0.0, 0.0, 0.0, 0.0, 0.0, 1.7184662869361925E9, 0.0, 2024-06-15 10:44:46.936
152.0, 53984.96138870256, -138372.18444015796, 93534.96504246772, -187500.02235174447, 93299.82469079789, -187500.02235174447, -187500.02235174447, -187500.02235174447, -0.064, 0.982, -0.184, 192.0, 0.0, 0.0, 0.0, 0.0, 0.0, 0.0, 0.0, 0.0, 0.0, 1.7184662869362173E9, 0.0, 2024-06-15 10:44:46.936
153.0, 57605.34049336201, -130919.10701025809, 96471.93956040616, -187500.02235174447, 95433.25399556804, -187500.02235174447, -187500.02235174447, -187500.02235174447, -0.064, 0.982, -0.184, 192.0, 0.0, 0.0, 0.0, 0.0, 0.0, 0.0, 0.0, 0.0, 0.0, 1.718466286936227E9, 0.0, 2024-06-15 10:44:46.936
154.0, 54520.84446201855, -135776.47635656313, 94237.3462602313, -187500.02235174447, 93552.28764442059, -187500.02235174447, -187500.02235174447, -187500.02235174447, -0.064, 0.982, -0.184, 192.0, 0.0, 0.0, 0.0, 0.0, 0.0, 0.0, 0.0, 0.0, 0.0, 1.718466286936236E9, 0.0, 2024-06-15 10:44:46.936
155.0, 50170.14445902639, -144712.48027235037, 90915.34059230574, -187500.02235174447, 91116.79686508141, -187500.02235174447, -187500.02235174447, -187500.02235174447, -0.064, 0.982, -0.184, 192.0, 0.0, 0.0, 0.0, 0.0, 0.0, 0.0, 0.0, 0.0, 0.0, 1.7184662869362452E9, 0.0, 2024-06-15 10:44:46.936
156.0, 52918.716122951046, -140253.7542884057, 92760.87942849153, -187500.02235174447, 92683.76591012072, -187500.02235174447, -187500.02235174447, -187500.02235174447, -0.064, 0.982, -0.184, 192.0, 0.0, 0.0, 0.0, 0.0, 0.0, 0.0, 0.0, 0.0, 0.0, 1.718466286936254E9, 0.0, 2024-06-15 10:44:46.936
0.0, 0.0, 0.0, 0.0, 0.0, 0.0, 0.0, 0.0, 0.0, -0.064, 0.982, -0.184, 192.0, 0.0, 0.0, 0.0, 0.0, 0.0, 0.0, 0.0, 0.0, 0.0, 1.7184662870155628E9, 0.0, 2024-06-15 10:44:47.015
1.0, 45816.40461878832, -141659.85782860016, 92171.93331383864, -187500.02235174447, 91593.2690016352, -187500.02235174447, -187500.02235174447, -187500.02235174447, -0.116, 0.96, -0.20800000000000002, 192.0, 252.0, 96.0, 30.0, 0.0, 249.0, 128.0, 0.0, 0.0, 0.0, 1.7184662875003135E9, 0.0, 2024-06-15 10:44:47.500
2.0, 50036.81630335049, -135762.86414418987, 96453.87935088627, -187500.02235174447, 95677.60326595345, -187500.02235174447, -187500.02235174447, -187500.02235174447, -0.116, 0.96, -0.20800000000000002, 192.0, 0.0, 0.0, 0.0, 0.0, 0.0, 0.0, 0.0, 0.0, 0.0, 1.718466287500412E9, 0.0, 2024-06-15 10:44:47.500
3.0, 49881.04699624145, -135266.65541728205, 95990.86296449459, -187500.02235174447, 94991.24824896434, -187500.02235174447, -187500.02235174447, -187500.02235174447, -0.116, 0.96, -0.20800000000000002, 192.0, 0.0, 0.0, 0.0, 0.0, 0.0, 0.0, 0.0, 0.0, 0.0, 1.7184662875004249E9, 0.0, 2024-06-15 10:44:47.500
4.0, 45657.79664013346, -141040.66980369925, 91630.14937998645, -187500.02235174447, 90769.00372135684, -187500.02235174447, -187500.02235174447, -187500.02235174447, -0.116, 0.96, -0.20800000000000002, 192.0, 0.0, 0.0, 0.0, 0.0, 0.0, 0.0, 0.0, 0.0, 0.0, 1.7184662875004373E9, 0.0, 2024-06-15 10:44:47.500
5.0, 45202.625716045586, -142410.27294519817, 91480.99618923619, -187500.02235174447, 90892.78768215033, -187500.02235174447, -187500.02235174447, -187500.02235174447, -0.116, 0.96, -0.20800000000000002, 192.0, 0.0, 0.0, 0.0, 0.0, 0.0, 0.0, 0.0, 0.0, 0.0, 1.7184662875004504E9, 0.0, 2024-06-15 10:44:47.500
6.0, 49460.230703381385, -136638.00199484848, 95905.70281811987, -187500.02235174447, 95192.5704112733, -187500.02235174447, -187500.02235174447, -187500.02235174447, -0.116, 0.96, -0.20800000000000002, 192.0, 0.0, 0.0, 0.0, 0.0, 0.0, 0.0, 0.0, 0.0, 0.0, 1.718466287500462E9, 0.0, 2024-06-15 10:44:47.500
7.0, 50340.956490153854, -134769.4185101293, 96502.89672647676, -187500.02235174447, 95524.29265073451, -187500.02235174447, -187500.02235174447, -187500.02235174447, -0.116, 0.96, -0.20800000000000002, 192.0, 0.0, 0.0, 0.0, 0.0, 0.0, 0.0, 0.0, 0.0, 0.0, 1.7184662875004733E9, 0.0, 2024-06-15 10:44:47.500
8.0, 46354.7910874833, -139989.4002067328, 92312.59284169589, -187500.02235174447, 91409.49295872367, -187500.02235174447, -187500.02235174447, -187500.02235174447, -0.14200000000000002, 0.9560000000000001, -0.222, 192.0, 251.0, 144.0, 29.0, 224.0, 249.0, 16.0, 0.0, 0.0, 0.0, 1.7184662875004847E9, 0.0, 2024-06-15 10:44:47.500
9.0, 44767.638417200855, -142902.61482031524, 90967.37545339769, -187500.02235174447, 90360.03385305809, -187500.02235174447, -187500.02235174447, -187500.02235174447, -0.14200000000000002, 0.9560000000000001, -0.222, 192.0, 0.0, 0.0, 0.0, 0.0, 0.0, 0.0, 0.0, 0.0, 0.0, 1.718466287500496E9, 0.0, 2024-06-15 10:44:47.500
10.0, 48766.18668629965, -137656.1463065322, 95214.38571386167, -187500.02235174447, 94562.94412171176, -187500.02235174447, -187500.02235174447, -187500.02235174447, -0.14200000000000002, 0.9560000000000001, -0.222, 192.0, 0.0, 0.0, 0.0, 0.0, 0.0, 0.0, 0.0, 0.0, 0.0, 1.718466287500509E9, 0.0, 2024-06-15 10:44:47.500
11.0, 50611.16672887406, -134545.29756847591, 96823.64425941042, -187500.02235174447, 95880.11007071854, -187500.02235174447, -187500.02235174447, -187500.02235174447, -0.14200000000000002, 0.9560000000000001, -0.222, 192.0, 0.0, 0.0, 0.0, 0.0, 0.0, 0.0, 0.0, 0.0, 0.0, 1.718466287500537E9, 0.0, 2024-06-15 10:44:47.500
12.0, 47107.10610236003, -138905.54176635048, 93073.15565027663, -187500.02235174447, 92140.01502275647, -187500.02235174447, -187500.02235174447, -187500.02235174447, -0.14200000000000002, 0.9560000000000001, -0.222, 192.0, 0.0, 0.0, 0.0, 0.0, 0.0, 0.0, 0.0, 0.0, 0.0, 1.7184662875005608E9, 0.0, 2024-06-15 10:44:47.500
13.0, 44547.071402915884, -143090.66004641773, 90673.87469695506, -187500.02235174447, 90018.76741871446, -187500.02235174447, -187500.02235174447, -187500.02235174447, -0.14200000000000002, 0.9560000000000001, -0.222, 192.0, 0.0, 0.0, 0.0, 0.0, 0.0, 0.0, 0.0, 0.0, 0.0, 1.718466287500582E9, 0.0, 2024-06-15 10:44:47.500
14.0, 47960.45100217474, -138794.87827955227, 94410.05818963745, -187500.02235174447, 93797.55333632867, -187500.02235174447, -187500.02235174447, -187500.02235174447, -0.14200000000000002, 0.9560000000000001, -0.222, 192.0, 0.0, 0.0, 0.0, 0.0, 0.0, 0.0, 0.0, 0.0, 0.0, 1.7184662875006049E9, 0.0, 2024-06-15 10:44:47.500
15.0, 50731.1732448546, -134544.4034986977, 97008.91786920046, -187500.02235174447, 96098.84424195817, -187500.02235174447, -187500.02235174447, -187500.02235174447, -0.14200000000000002, 0.9560000000000001, -0.222, 192.0, 0.0, 0.0, 0.0, 0.0, 0.0, 0.0, 0.0, 0.0, 0.0, 1.7184662875006275E9, 0.0, 2024-06-15 10:44:47.500
16.0, 47934.99236524014, -137776.75631961302, 93924.4665413459, -187500.02235174447, 92959.18410529902, -187500.02235174447, -187500.02235174447, -187500.02235174447, -0.14200000000000002, 0.9560000000000001, -0.222, 192.0, 0.0, 0.0, 0.0, 0.0, 0.0, 0.0, 0.0, 0.0, 0.0, 1.7184662875006423E9, 0.0, 2024-06-15 10:44:47.500
17.0, 44538.980071423066, -142956.81780061935, 90607.62412638952, -187500.02235174447, 89905.91346095962, -187500.02235174447, -187500.02235174447, -187500.02235174447, -0.14200000000000002, 0.9560000000000001, -0.222, 192.0, 0.0, 0.0, 0.0, 0.0, 0.0, 0.0, 0.0, 0.0, 0.0, 1.71846628750069E9, 0.0, 2024-06-15 10:44:47.500
18.0, 47152.14486743747, -139908.46454006011, 93577.74628135518, -187500.02235174447, 92998.36671332917, -187500.02235174447, -187500.02235174447, -187500.02235174447, -0.146, 0.9480000000000001, -0.234, 192.0, 251.0, 112.0, 29.0, 160.0, 248.0, 176.0, 0.0, 0.0, 0.0, 1.7184662875007007E9, 0.0, 2024-06-15 10:44:47.500
19.0, 50634.16667391857, -134816.3124699965, 96974.65264495047, -187500.02235174447, 96113.64109678759, -187500.02235174447, -187500.02235174447, -187500.02235174447, -0.146, 0.9480000000000001, -0.234, 192.0, 0.0, 0.0, 0.0, 0.0, 0.0, 0.0, 0.0, 0.0, 0.0, 1.7184662875007112E9, 0.0, 2024-06-15 10:44:47.500
20.0, 48736.36945919627, -136734.49447566207, 94768.84839163403, -187500.02235174447, 93775.00042617327, -187500.02235174447, -187500.02235174447, -187500.02235174447, -0.146, 0.9480000000000001, -0.234, 192.0, 0.0, 0.0, 0.0, 0.0, 0.0, 0.0, 0.0, 0.0, 0.0, 1.718466287500723E9, 0.0, 2024-06-15 10:44:47.500
21.0, 44793.857013446934, -142466.80050692565, 90814.86950097913, -187500.02235174447, 90038.99574744652, -187500.02235174447, -187500.02235174447, -187500.02235174447, -0.146, 0.9480000000000001, -0.234, 192.0, 0.0, 0.0, 0.0, 0.0, 0.0, 0.0, 0.0, 0.0, 0.0, 1.7184662875007496E9, 0.0, 2024-06-15 10:44:47.500
22.0, 46374.77354702634, -140944.40084033023, 92763.82985875964, -187500.02235174447, 92178.43767147514, -187500.02235174447, -187500.02235174447, -187500.02235174447, -0.146, 0.9480000000000001, -0.234, 192.0, 0.0, 0.0, 0.0, 0.0, 0.0, 0.0, 0.0, 0.0, 0.0, 1.7184662875007596E9, 0.0, 2024-06-15 10:44:47.500
23.0, 50360.469563063336, -135308.00614452435, 96759.78532550161, -187500.02235174447, 95941.75618192628, -187500.02235174447, -187500.02235174447, -187500.02235174447, -0.146, 0.9480000000000001, -0.234, 192.0, 0.0, 0.0, 0.0, 0.0, 0.0, 0.0, 0.0, 0.0, 0.0, 1.7184662875007706E9, 0.0, 2024-06-15 10:44:47.500
24.0, 49438.705973470926, -135856.40619473532, 95516.4471884307, -187500.02235174447, 94517.4583217452, -187500.02235174447, -187500.02235174447, -187500.02235174447, -0.146, 0.9480000000000001, -0.234, 192.0, 0.0, 0.0, 0.0, 0.0, 0.0, 0.0, 0.0, 0.0, 0.0, 1.7184662875007808E9, 0.0, 2024-06-15 10:44:47.500
25.0, 45247.373908445115, -141715.2007478715, 91226.25335767906, -187500.02235174447, 90392.086254607, -187500.02235174447, -187500.02235174447, -187500.02235174447, -0.146, 0.9480000000000001, -0.234, 192.0, 0.0, 0.0, 0.0, 0.0, 0.0, 0.0, 0.0, 0.0, 0.0, 1.7184662875007908E9, 0.0, 2024-06-15 10:44:47.500
26.0, 45680.95304738916, -141837.59890050875, 92002.39533214514, -187500.02235174447, 91410.54349071307, -187500.02235174447, -187500.02235174447, -187500.02235174447, -0.146, 0.9480000000000001, -0.234, 192.0, 0.0, 0.0, 0.0, 0.0, 0.0, 0.0, 0.0, 0.0, 0.0, 1.7184662875008008E9, 0.0, 2024-06-15 10:44:47.500
27.0, 49903.06346452993, -136031.97914743176, 96336.82326517384, -187500.02235174447, 95572.5053635246, -187500.02235174447, -187500.02235174447, -187500.02235174447, -0.146, 0.9480000000000001, -0.234, 192.0, 0.0, 0.0, 0.0, 0.0, 0.0, 0.0, 0.0, 0.0, 0.0, 1.7184662875008106E9, 0.0, 2024-06-15 10:44:47.500
28.0, 49984.04383469151, -135217.10159982461, 96115.29512587728, -187500.02235174447, 95119.90489004909, -187500.02235174447, -187500.02235174447, -187500.02235174447, -0.146, 0.9480000000000001, -0.234, 192.0, 0.0, 0.0, 0.0, 0.0, 0.0, 0.0, 0.0, 0.0, 0.0, 1.7184662875008247E9, 0.0, 2024-06-15 10:44:47.500
29.0, 45792.26473477659, -140839.66056581266, 91763.656349618, -187500.02235174447, 90883.93639134603, -187500.02235174447, -187500.02235174447, -187500.02235174447, -0.15, 0.9440000000000001, -0.234, 192.0, 251.0, 80.0, 29.0, 128.0, 248.0, 176.0, 0.0, 0.0, 0.0, 1.7184662875008347E9, 0.0, 2024-06-15 10:44:47.500
30.0, 45073.16441216045, -142571.11609829857, 91340.87310324587, -187500.02235174447, 90731.34103194965, -187500.02235174447, -187500.02235174447, -187500.02235174447, -0.15, 0.9440000000000001, -0.234, 192.0, 0.0, 0.0, 0.0, 0.0, 0.0, 0.0, 0.0, 0.0, 0.0, 1.718466287500845E9, 0.0, 2024-06-15 10:44:47.500
31.0, 49281.95318960586, -136949.3841468554, 95757.06371749207, -187500.02235174447, 95042.56785423373, -187500.02235174447, -187500.02235174447, -187500.02235174447, -0.15, 0.9440000000000001, -0.234, 192.0, 0.0, 0.0, 0.0, 0.0, 0.0, 0.0, 0.0, 0.0, 0.0, 1.7184662875008547E9, 0.0, 2024-06-15 10:44:47.500
32.0, 50423.590889405124, -134748.13964940782, 96623.59614653542, -187500.02235174447, 95629.5246636301, -187500.02235174447, -187500.02235174447, -187500.02235174447, -0.15, 0.9440000000000001, -0.234, 192.0, 0.0, 0.0, 0.0, 0.0, 0.0, 0.0, 0.0, 0.0, 0.0, 1.7184662875008645E9, 0.0, 2024-06-15 10:44:47.500
33.0, 46511.812092281834, -139753.9245788961, 92486.7799862361, -187500.02235174447, 91552.76764068218, -187500.02235174447, -187500.02235174447, -187500.02235174447, -0.15, 0.9440000000000001, -0.234, 192.0, 0.0, 0.0, 0.0, 0.0, 0.0, 0.0, 0.0, 0.0, 0.0, 1.7184662875008743E9, 0.0, 2024-06-15 10:44:47.500
34.0, 44684.8475557384, -142959.00827157596, 90882.7517488899, -187500.02235174447, 90232.47244745166, -187500.02235174447, -187500.02235174447, -187500.02235174447, -0.15, 0.9440000000000001, -0.234, 192.0, 0.0, 0.0, 0.0, 0.0, 0.0, 0.0, 0.0, 0.0, 0.0, 1.7184662875008843E9, 0.0, 2024-06-15 10:44:47.500
35.0, 48521.68095370304, -137991.15425242833, 95010.76132187383, -187500.02235174447, 94345.05931676141, -187500.02235174447, -187500.02235174447, -187500.02235174447, -0.15, 0.9440000000000001, -0.234, 192.0, 0.0, 0.0, 0.0, 0.0, 0.0, 0.0, 0.0, 0.0, 0.0, 1.7184662875008943E9, 0.0, 2024-06-15 10:44:47.500
36.0, 50582.17651631553, -134621.0252786905, 96859.02707088317, -187500.02235174447, 95909.39085595499, -187500.02235174447, -187500.02235174447, -187500.02235174447, -0.15, 0.9440000000000001, -0.234, 192.0, 0.0, 0.0, 0.0, 0.0, 0.0, 0.0, 0.0, 0.0, 0.0, 1.7184662875009043E9, 0.0, 2024-06-15 10:44:47.500
37.0, 47205.5431849412, -138715.8425111583, 93226.13098932875, -187500.02235174447, 92271.66679759823, -187500.02235174447, -187500.02235174447, -187500.02235174447, -0.15, 0.9440000000000001, -0.234, 192.0, 0.0, 0.0, 0.0, 0.0, 0.0, 0.0, 0.0, 0.0, 0.0, 1.7184662875009148E9, 0.0, 2024-06-15 10:44:47.500
38.0, 44417.74420949748, -143144.90773021075, 90581.36082665453, -187500.02235174447, 89903.34301034725, -187500.02235174447, -187500.02235174447, -187500.02235174447, -0.15, 0.9440000000000001, -0.234, 192.0, 0.0, 0.0, 0.0, 0.0, 0.0, 0.0, 0.0, 0.0, 0.0, 1.7184662875009248E9, 0.0, 2024-06-15 10:44:47.500
39.0, 47679.60133309381, -139128.6345277589, 94191.27931490891, -187500.02235174447, 93577.16513599934, -187500.02235174447, -187500.02235174447, -187500.02235174447, -0.146, 0.9440000000000001, -0.23600000000000002, 192.0, 251.0, 112.0, 29.0, 128.0, 248.0, 160.0, 0.0, 0.0, 0.0, 1.7184662875009346E9, 0.0, 2024-06-15 10:44:47.500
40.0, 50588.16678382955, -134721.76459095057, 96960.05695582116, -187500.02235174447, 96062.16502930701, -187500.02235174447, -187500.02235174447, -187500.02235174447, -0.146, 0.9440000000000001, -0.23600000000000002, 192.0, 0.0, 0.0, 0.0, 0.0, 0.0, 0.0, 0.0, 0.0, 0.0, 1.7184662875009444E9, 0.0, 2024-06-15 10:44:47.500
41.0, 47985.082624564486, -137639.8295330798, 94067.33889190423, -187500.02235174447, 93096.4238162546, -187500.02235174447, -187500.02235174447, -187500.02235174447, -0.146, 0.9440000000000001, -0.23600000000000002, 192.0, 0.0, 0.0, 0.0, 0.0, 0.0, 0.0, 0.0, 0.0, 0.0, 1.7184662875009544E9, 0.0, 2024-06-15 10:44:47.500
42.0, 44431.669346293136, -142959.09767855378, 90573.76123353973, -187500.02235174447, 89848.5588846873, -187500.02235174447, -187500.02235174447, -187500.02235174447, -0.146, 0.9440000000000001, -0.23600000000000002, 192.0, 0.0, 0.0, 0.0, 0.0, 0.0, 0.0, 0.0, 0.0, 0.0, 1.718466287500964E9, 0.0, 2024-06-15 10:44:47.500
43.0, 46803.70352312369, -140294.56857378109, 93323.98692655408, -187500.02235174447, 92735.2866810902, -187500.02235174447, -187500.02235174447, -187500.02235174447, -0.146, 0.9440000000000001, -0.23600000000000002, 192.0, 0.0, 0.0, 0.0, 0.0, 0.0, 0.0, 0.0, 0.0, 0.0, 1.718466287500974E9, 0.0, 2024-06-15 10:44:47.500
44.0, 50455.240959553834, -135034.30903366912, 96918.34860066755, -187500.02235174447, 96056.80061063774, -187500.02235174447, -187500.02235174447, -187500.02235174447, -0.146, 0.9440000000000001, -0.23600000000000002, 192.0, 0.0, 0.0, 0.0, 0.0, 0.0, 0.0, 0.0, 0.0, 0.0, 1.718466287500984E9, 0.0, 2024-06-15 10:44:47.500
45.0, 48752.77563962647, -136639.81248614937, 94896.07452107365, -187500.02235174447, 93907.34510509315, -187500.02235174447, -187500.02235174447, -187500.02235174447, -0.146, 0.9440000000000001, -0.23600000000000002, 192.0, 0.0, 0.0, 0.0, 0.0, 0.0, 0.0, 0.0, 0.0, 0.0, 1.718466287500994E9, 0.0, 2024-06-15 10:44:47.500
46.0, 44691.03898895252, -142448.5838351946, 90799.46914904943, -187500.02235174447, 90026.03173566243, -187500.02235174447, -187500.02235174447, -187500.02235174447, -0.146, 0.9440000000000001, -0.23600000000000002, 192.0, 0.0, 0.0, 0.0, 0.0, 0.0, 0.0, 0.0, 0.0, 0.0, 1.7184662875010037E9, 0.0, 2024-06-15 10:44:47.501
47.0, 46001.43235938935, -141337.54567355462, 92485.46123331324, -187500.02235174447, 91919.11273230467, -187500.02235174447, -187500.02235174447, -187500.02235174447, -0.146, 0.9440000000000001, -0.23600000000000002, 192.0, 0.0, 0.0, 0.0, 0.0, 0.0, 0.0, 0.0, 0.0, 0.0, 1.7184662875010135E9, 0.0, 2024-06-15 10:44:47.501
48.0, 50089.05233014254, -135630.51946527, 96617.5611755325, -187500.02235174447, 95831.96441316181, -187500.02235174447, -187500.02235174447, -187500.02235174447, -0.146, 0.9440000000000001, -0.23600000000000002, 192.0, 0.0, 0.0, 0.0, 0.0, 0.0, 0.0, 0.0, 0.0, 0.0, 1.7184662875010235E9, 0.0, 2024-06-15 10:44:47.501
49.0, 49420.44459825094, -135821.04573500704, 95628.11650372941, -187500.02235174447, 94643.41040175085, -187500.02235174447, -187500.02235174447, -187500.02235174447, -0.154, 0.9440000000000001, -0.23600000000000002, 192.0, 251.0, 48.0, 29.0, 128.0, 248.0, 160.0, 0.0, 0.0, 0.0, 1.7184662875010335E9, 0.0, 2024-06-15 10:44:47.501
50.0, 45180.318675079194, -141654.20283725296, 91273.92962860223, -187500.02235174447, 90446.89273201142, -187500.02235174447, -187500.02235174447, -187500.02235174447, -0.154, 0.9440000000000001, -0.23600000000000002, 192.0, 0.0, 0.0, 0.0, 0.0, 0.0, 0.0, 0.0, 0.0, 0.0, 1.7184662875010438E9, 0.0, 2024-06-15 10:44:47.501
51.0, 45343.21818866947, -142172.9644743162, 91775.54747766822, -187500.02235174447, 91198.58189804338, -187500.02235174447, -187500.02235174447, -187500.02235174447, -0.154, 0.9440000000000001, -0.23600000000000002, 192.0, 0.0, 0.0, 0.0, 0.0, 0.0, 0.0, 0.0, 0.0, 0.0, 1.7184662875010538E9, 0.0, 2024-06-15 10:44:47.501
52.0, 49581.22069611796, -136414.48455029543, 96164.49131542341, -187500.02235174447, 95434.01395487953, -187500.02235174447, -187500.02235174447, -187500.02235174447, -0.154, 0.9440000000000001, -0.23600000000000002, 192.0, 0.0, 0.0, 0.0, 0.0, 0.0, 0.0, 0.0, 0.0, 0.0, 1.7184662875010636E9, 0.0, 2024-06-15 10:44:47.501
53.0, 49947.34227029589, -135231.9655098874, 96234.72049650199, -187500.02235174447, 95256.83167658231, -187500.02235174447, -187500.02235174447, -187500.02235174447, -0.154, 0.9440000000000001, -0.23600000000000002, 192.0, 0.0, 0.0, 0.0, 0.0, 0.0, 0.0, 0.0, 0.0, 0.0, 1.7184662875010734E9, 0.0, 2024-06-15 10:44:47.501
54.0, 45807.01688611709, -140707.04766595934, 91910.90964208957, -187500.02235174447, 91033.02252686293, -187500.02235174447, -187500.02235174447, -187500.02235174447, -0.154, 0.9440000000000001, -0.23600000000000002, 192.0, 0.0, 0.0, 0.0, 0.0, 0.0, 0.0, 0.0, 0.0, 0.0, 1.7184662875010831E9, 0.0, 2024-06-15 10:44:47.501
55.0, 44778.277847561585, -142855.43028777008, 91167.35651103932, -187500.02235174447, 90568.41916661491, -187500.02235174447, -187500.02235174447, -187500.02235174447, -0.154, 0.9440000000000001, -0.23600000000000002, 192.0, 0.0, 0.0, 0.0, 0.0, 0.0, 0.0, 0.0, 0.0, 0.0, 1.7184662875010931E9, 0.0, 2024-06-15 10:44:47.501
56.0, 48960.57980782745, -137343.73597428037, 95582.98833167415, -187500.02235174447, 94898.95789610839, -187500.02235174447, -187500.02235174447, -187500.02235174447, -0.154, 0.9440000000000001, -0.23600000000000002, 192.0, 0.0, 0.0, 0.0, 0.0, 0.0, 0.0, 0.0, 0.0, 0.0, 1.718466287501104E9, 0.0, 2024-06-15 10:44:47.501
57.0, 50341.33646980959, -134841.59229297546, 96699.68148466128, -187500.02235174447, 95739.98698472822, -187500.02235174447, -187500.02235174447, -187500.02235174447, -0.154, 0.9440000000000001, -0.23600000000000002, 192.0, 0.0, 0.0, 0.0, 0.0, 0.0, 0.0, 0.0, 0.0, 0.0, 1.7184662875011146E9, 0.0, 2024-06-15 10:44:47.501
58.0, 46550.8382381008, -139633.94041466003, 92666.04097676766, -187500.02235174447, 91753.15102972402, -187500.02235174447, -187500.02235174447, -187500.02235174447, -0.154, 0.9440000000000001, -0.23600000000000002, 192.0, 0.0, 0.0, 0.0, 0.0, 0.0, 0.0, 0.0, 0.0, 0.0, 1.7184662875011249E9, 0.0, 2024-06-15 10:44:47.501
59.0, 44468.303855455386, -143179.48587888313, 90783.37589304161, -187500.02235174447, 90153.70489999115, -187500.02235174447, -187500.02235174447, -187500.02235174447, -0.152, 0.9440000000000001, -0.23600000000000002, 192.0, 251.0, 64.0, 29.0, 128.0, 248.0, 160.0, 0.0, 0.0, 0.0, 1.7184662875011346E9, 0.0, 2024-06-15 10:44:47.501
60.0, 48218.59129888908, -138398.4700916374, 94840.30691865766, -187500.02235174447, 94212.51347214145, -187500.02235174447, -187500.02235174447, -187500.02235174447, -0.152, 0.9440000000000001, -0.23600000000000002, 192.0, 0.0, 0.0, 0.0, 0.0, 0.0, 0.0, 0.0, 0.0, 0.0, 1.718466287501145E9, 0.0, 2024-06-15 10:44:47.501
61.0, 50573.70520516697, -134670.80261359247, 96982.07342410964, -187500.02235174447, 96060.48864847286, -187500.02235174447, -187500.02235174447, -187500.02235174447, -0.152, 0.9440000000000001, -0.23600000000000002, 192.0, 0.0, 0.0, 0.0, 0.0, 0.0, 0.0, 0.0, 0.0, 0.0, 1.718466287501155E9, 0.0, 2024-06-15 10:44:47.501
62.0, 47396.89646922308, -138447.5321707168, 93519.54233879356, -187500.02235174447, 92577.63982744692, -187500.02235174447, -187500.02235174447, -187500.02235174447, -0.152, 0.9440000000000001, -0.23600000000000002, 192.0, 0.0, 0.0, 0.0, 0.0, 0.0, 0.0, 0.0, 0.0, 0.0, 1.718466287501165E9, 0.0, 2024-06-15 10:44:47.501
63.0, 44365.06114781632, -143162.38679437482, 90612.42975144742, -187500.02235174447, 89936.80357179685, -187500.02235174447, -187500.02235174447, -187500.02235174447, -0.152, 0.9440000000000001, -0.23600000000000002, 192.0, 0.0, 0.0, 0.0, 0.0, 0.0, 0.0, 0.0, 0.0, 0.0, 1.7184662875011747E9, 0.0, 2024-06-15 10:44:47.501
64.0, 47388.46986156343, -139509.06121838823, 94001.20008006098, -187500.02235174447, 93412.52218634155, -187500.02235174447, -187500.02235174447, -187500.02235174447, -0.152, 0.9440000000000001, -0.23600000000000002, 192.0, 0.0, 0.0, 0.0, 0.0, 0.0, 0.0, 0.0, 0.0, 0.0, 1.7184662875011852E9, 0.0, 2024-06-15 10:44:47.501
65.0, 50535.90840529304, -134827.19776954624, 97027.71568628737, -187500.02235174447, 96157.15994324208, -187500.02235174447, -187500.02235174447, -187500.02235174447, -0.152, 0.9440000000000001, -0.23600000000000002, 192.0, 0.0, 0.0, 0.0, 0.0, 0.0, 0.0, 0.0, 0.0, 0.0, 1.718466287501195E9, 0.0, 2024-06-15 10:44:47.501
66.0, 48176.03357744618, -137389.86997483613, 94360.43731694667, -187500.02235174447, 93400.65341003578, -187500.02235174447, -187500.02235174447, -187500.02235174447, -0.152, 0.9440000000000001, -0.23600000000000002, 192.0, 0.0, 0.0, 0.0, 0.0, 0.0, 0.0, 0.0, 0.0, 0.0, 1.7184662875012088E9, 0.0, 2024-06-15 10:44:47.501
67.0, 44459.98900651801, -142875.79272696885, 90675.01463592227, -187500.02235174447, 89954.59556038327, -187500.02235174447, -187500.02235174447, -187500.02235174447, -0.152, 0.9440000000000001, -0.23600000000000002, 192.0, 0.0, 0.0, 0.0, 0.0, 0.0, 0.0, 0.0, 0.0, 0.0, 1.7184662875012195E9, 0.0, 2024-06-15 10:44:47.501
68.0, 46568.1384883092, -140589.72335931342, 93161.08741296381, -187500.02235174447, 92599.4551300353, -187500.02235174447, -187500.02235174447, -187500.02235174447, -0.152, 0.9440000000000001, -0.23600000000000002, 192.0, 0.0, 0.0, 0.0, 0.0, 0.0, 0.0, 0.0, 0.0, 0.0, 1.7184662875012295E9, 0.0, 2024-06-15 10:44:47.501
69.0, 50310.17813803889, -135218.57681495868, 96878.62955077048, -187500.02235174447, 96067.41768925401, -187500.02235174447, -187500.02235174447, -187500.02235174447, -0.152, 0.9440000000000001, -0.23600000000000002, 192.0, 0.0, 0.0, 0.0, 0.0, 0.0, 0.0, 0.0, 0.0, 0.0, 1.7184662875012398E9, 0.0, 2024-06-15 10:44:47.501
70.0, 48857.04652751047, -136478.2764289709, 95114.36165742418, -187500.02235174447, 94156.58940751427, -187500.02235174447, -187500.02235174447, -187500.02235174447, -0.162, 0.9400000000000001, -0.244, 192.0, 250.0, 240.0, 29.0, 96.0, 248.0, 96.0, 0.0, 0.0, 0.0, 1.7184662875012505E9, 0.0, 2024-06-15 10:44:47.501
71.0, 44776.98144638317, -142278.48705988968, 90975.15386046814, -187500.02235174447, 90205.40448491627, -187500.02235174447, -187500.02235174447, -187500.02235174447, -0.162, 0.9400000000000001, -0.244, 192.0, 0.0, 0.0, 0.0, 0.0, 0.0, 0.0, 0.0, 0.0, 0.0, 1.7184662875012608E9, 0.0, 2024-06-15 10:44:47.501
72.0, 45825.05474389252, -141541.97472834287, 92382.57615358545, -187500.02235174447, 91823.6707834805, -187500.02235174447, -187500.02235174447, -187500.02235174447, -0.162, 0.9400000000000001, -0.244, 192.0, 0.0, 0.0, 0.0, 0.0, 0.0, 0.0, 0.0, 0.0, 0.0, 1.7184662875012715E9, 0.0, 2024-06-15 10:44:47.501
73.0, 49931.494883477084, -135813.62495584786, 96566.48743945212, -187500.02235174447, 95813.2112995638, -187500.02235174447, -187500.02235174447, -187500.02235174447, -0.162, 0.9400000000000001, -0.244, 192.0, 0.0, 0.0, 0.0, 0.0, 0.0, 0.0, 0.0, 0.0, 0.0, 1.7184662875012815E9, 0.0, 2024-06-15 10:44:47.501
74.0, 49479.07322395721, -135697.30647770246, 95808.45037799483, -187500.02235174447, 94856.40017466548, -187500.02235174447, -187500.02235174447, -187500.02235174447, -0.162, 0.9400000000000001, -0.244, 192.0, 0.0, 0.0, 0.0, 0.0, 0.0, 0.0, 0.0, 0.0, 0.0, 1.7184662875012915E9, 0.0, 2024-06-15 10:44:47.501
75.0, 45229.268995436316, -141491.9515242519, 91429.76599094462, -187500.02235174447, 90627.51717895475, -187500.02235174447, -187500.02235174447, -187500.02235174447, -0.162, 0.9400000000000001, -0.244, 192.0, 0.0, 0.0, 0.0, 0.0, 0.0, 0.0, 0.0, 0.0, 0.0, 1.7184662875013018E9, 0.0, 2024-06-15 10:44:47.501
76.0, 45077.05361569567, -142445.5663496931, 91607.88704250897, -187500.02235174447, 91070.32758835884, -187500.02235174447, -187500.02235174447, -187500.02235174447, -0.162, 0.9400000000000001, -0.244, 192.0, 0.0, 0.0, 0.0, 0.0, 0.0, 0.0, 0.0, 0.0, 0.0, 1.7184662875013125E9, 0.0, 2024-06-15 10:44:47.501
77.0, 49322.3427918366, -136698.44111185565, 96033.91242431551, -187500.02235174447, 95362.28720692244, -187500.02235174447, -187500.02235174447, -187500.02235174447, -0.162, 0.9400000000000001, -0.244, 192.0, 0.0, 0.0, 0.0, 0.0, 0.0, 0.0, 0.0, 0.0, 0.0, 1.7184662875013235E9, 0.0, 2024-06-15 10:44:47.501
78.0, 49911.557127422944, -135197.70028563743, 96344.60167224427, -187500.02235174447, 95431.10822810033, -187500.02235174447, -187500.02235174447, -187500.02235174447, -0.162, 0.9400000000000001, -0.244, 192.0, 0.0, 0.0, 0.0, 0.0, 0.0, 0.0, 0.0, 0.0, 0.0, 1.7184662875013335E9, 0.0, 2024-06-15 10:44:47.501
79.0, 45823.17719735828, -140547.63502450407, 92062.83444915229, -187500.02235174447, 91246.32522419993, -187500.02235174447, -187500.02235174447, -187500.02235174447, -0.162, 0.9400000000000001, -0.244, 192.0, 0.0, 0.0, 0.0, 0.0, 0.0, 0.0, 0.0, 0.0, 0.0, 1.7184662875013435E9, 0.0, 2024-06-15 10:44:47.501
80.0, 44471.38839619022, -143117.70565720866, 90991.11300600923, -187500.02235174447, 90476.88877307043, -187500.02235174447, -187500.02235174447, -187500.02235174447, -0.156, 0.936, -0.246, 192.0, 251.0, 32.0, 29.0, 64.0, 248.0, 80.0, 0.0, 0.0, 0.0, 1.718466287501354E9, 0.0, 2024-06-15 10:44:47.501
81.0, 48504.291296516814, -137807.37820951678, 95304.61970622775, -187500.02235174447, 94747.97186231278, -187500.02235174447, -187500.02235174447, -187500.02235174447, -0.156, 0.936, -0.246, 192.0, 0.0, 0.0, 0.0, 0.0, 0.0, 0.0, 0.0, 0.0, 0.0, 1.7184662875013645E9, 0.0, 2024-06-15 10:44:47.501
82.0, 50091.75689122163, -135023.6248998195, 96676.01098728311, -187500.02235174447, 95847.3200616026, -187500.02235174447, -187500.02235174447, -187500.02235174447, -0.156, 0.936, -0.246, 192.0, 0.0, 0.0, 0.0, 0.0, 0.0, 0.0, 0.0, 0.0, 0.0, 1.7184662875013752E9, 0.0, 2024-06-15 10:44:47.501
83.0, 46475.669321497604, -139543.0358699603, 92829.78985664724, -187500.02235174447, 92019.76263758691, -187500.02235174447, -187500.02235174447, -187500.02235174447, -0.156, 0.936, -0.246, 192.0, 0.0, 0.0, 0.0, 0.0, 0.0, 0.0, 0.0, 0.0, 0.0, 1.7184662875013857E9, 0.0, 2024-06-15 10:44:47.501
84.0, 44105.892670857036, -143442.78942856664, 90660.37424330405, -187500.02235174447, 90139.57859749539, -187500.02235174447, -187500.02235174447, -187500.02235174447, -0.156, 0.936, -0.246, 192.0, 0.0, 0.0, 0.0, 0.0, 0.0, 0.0, 0.0, 0.0, 0.0, 1.7184662875013957E9, 0.0, 2024-06-15 10:44:47.501
85.0, 47619.721009698034, -138986.32097081197, 94528.4106765283, -187500.02235174447, 94050.19510390701, -187500.02235174447, -187500.02235174447, -187500.02235174447, -0.156, 0.936, -0.246, 192.0, 0.0, 0.0, 0.0, 0.0, 0.0, 0.0, 0.0, 0.0, 0.0, 1.7184662875014057E9, 0.0, 2024-06-15 10:44:47.501
86.0, 50107.023132684604, -135079.61601968005, 96863.98915815225, -187500.02235174447, 96112.16588165353, -187500.02235174447, -187500.02235174447, -187500.02235174447, -0.156, 0.936, -0.246, 192.0, 0.0, 0.0, 0.0, 0.0, 0.0, 0.0, 0.0, 0.0, 0.0, 1.7184662875014157E9, 0.0, 2024-06-15 10:44:47.501
87.0, 47082.11685205899, -138617.56189078832, 93585.72585412573, -187500.02235174447, 92811.97551631636, -187500.02235174447, -187500.02235174447, -187500.02235174447, -0.156, 0.936, -0.246, 192.0, 0.0, 0.0, 0.0, 0.0, 0.0, 0.0, 0.0, 0.0, 0.0, 1.7184662875014255E9, 0.0, 2024-06-15 10:44:47.501
88.0, 43813.08481849251, -143615.41195099498, 90449.41847913487, -187500.02235174447, 89957.45658367356, -187500.02235174447, -187500.02235174447, -187500.02235174447, -0.156, 0.936, -0.246, 192.0, 0.0, 0.0, 0.0, 0.0, 0.0, 0.0, 0.0, 0.0, 0.0, 1.718466287501436E9, 0.0, 2024-06-15 10:44:47.501
89.0, 46561.94705509509, -140345.01646101673, 93606.49062472471, -187500.02235174447, 93238.42444877917, -187500.02235174447, -187500.02235174447, -187500.02235174447, -0.156, 0.936, -0.246, 192.0, 0.0, 0.0, 0.0, 0.0, 0.0, 0.0, 0.0, 0.0, 0.0, 1.7184662875014458E9, 0.0, 2024-06-15 10:44:47.501
90.0, 49808.82850990636, -135530.56246406585, 96805.2487737237, -187500.02235174447, 96174.16962077256, -187500.02235174447, -187500.02235174447, -187500.02235174447, -0.16, 0.9400000000000001, -0.24, 192.0, 251.0, 0.0, 29.0, 96.0, 248.0, 128.0, 0.0, 0.0, 0.0, 1.7184662875014555E9, 0.0, 2024-06-15 10:44:47.501
91.0, 47627.03003013492, -137823.53852075798, 94360.90670358023, -187500.02235174447, 93637.93952917332, -187500.02235174447, -187500.02235174447, -187500.02235174447, -0.16, 0.9400000000000001, -0.24, 192.0, 0.0, 0.0, 0.0, 0.0, 0.0, 0.0, 0.0, 0.0, 0.0, 1.7184662875014656E9, 0.0, 2024-06-15 10:44:47.501
92.0, 43791.157757181856, -143443.72820183376, 90564.35114912405, -187500.02235174447, 90077.261933954, -187500.02235174447, -187500.02235174447, -187500.02235174447, -0.16, 0.9400000000000001, -0.24, 192.0, 0.0, 0.0, 0.0, 0.0, 0.0, 0.0, 0.0, 0.0, 0.0, 1.7184662875014756E9, 0.0, 2024-06-15 10:44:47.501
93.0, 45587.321589865875, -141597.65292378105, 92768.38961462851, -187500.02235174447, 92475.04532039707, -187500.02235174447, -187500.02235174447, -187500.02235174447, -0.16, 0.9400000000000001, -0.24, 192.0, 0.0, 0.0, 0.0, 0.0, 0.0, 0.0, 0.0, 0.0, 0.0, 1.7184662875014853E9, 0.0, 2024-06-15 10:44:47.501
94.0, 49396.84115610614, -136152.09742213457, 96620.98099243415, -187500.02235174447, 96111.58473629771, -187500.02235174447, -187500.02235174447, -187500.02235174447, -0.16, 0.9400000000000001, -0.24, 192.0, 0.0, 0.0, 0.0, 0.0, 0.0, 0.0, 0.0, 0.0, 0.0, 1.7184662875014951E9, 0.0, 2024-06-15 10:44:47.501
95.0, 48157.03459465916, -137097.4644538718, 95113.02055275686, -187500.02235174447, 94456.41570763776, -187500.02235174447, -187500.02235174447, -187500.02235174447, -0.16, 0.9400000000000001, -0.24, 192.0, 0.0, 0.0, 0.0, 0.0, 0.0, 0.0, 0.0, 0.0, 0.0, 1.7184662875015054E9, 0.0, 2024-06-15 10:44:47.501
96.0, 43917.51216858771, -143028.52219683197, 90847.07836473922, -187500.02235174447, 90398.23298433221, -187500.02235174447, -187500.02235174447, -187500.02235174447, -0.16, 0.9400000000000001, -0.24, 192.0, 0.0, 0.0, 0.0, 0.0, 0.0, 0.0, 0.0, 0.0, 0.0, 1.7184662875015152E9, 0.0, 2024-06-15 10:44:47.501
97.0, 44537.16958012219, -142858.60423548272, 91884.2887144433, -187500.02235174447, 91694.09772087309, -187500.02235174447, -187500.02235174447, -187500.02235174447, -0.16, 0.9400000000000001, -0.24, 192.0, 0.0, 0.0, 0.0, 0.0, 0.0, 0.0, 0.0, 0.0, 0.0, 1.718466287501526E9, 0.0, 2024-06-15 10:44:47.501
98.0, 48646.426039508115, -137154.70727142182, 96161.6973473665, -187500.02235174447, 95804.69528492633, -187500.02235174447, -187500.02235174447, -187500.02235174447, -0.16, 0.9400000000000001, -0.24, 192.0, 0.0, 0.0, 0.0, 0.0, 0.0, 0.0, 0.0, 0.0, 0.0, 1.7184662875015373E9, 0.0, 2024-06-15 10:44:47.501
99.0, 48459.207827950464, -136683.8230709819, 95727.91704272236, -187500.02235174447, 95163.84841964823, -187500.02235174447, -187500.02235174447, -187500.02235174447, -0.16, 0.9400000000000001, -0.24, 192.0, 0.0, 0.0, 0.0, 0.0, 0.0, 0.0, 0.0, 0.0, 0.0, 1.718466287501564E9, 0.0, 2024-06-15 10:44:47.501
100.0, 44188.862346275135, -142443.59939618103, 91355.69230981974, -187500.02235174447, 90947.08006943227, -187500.02235174447, -187500.02235174447, -187500.02235174447, -0.168, 0.936, -0.23800000000000002, 192.0, 250.0, 192.0, 29.0, 64.0, 248.0, 144.0, 0.0, 0.0, 0.0, 1.7184662875015748E9, 0.0, 2024-06-15 10:44:47.501
101.0, 43694.62057287939, -143855.98377656745, 91222.5876715884, -187500.02235174447, 91103.94461201962, -187500.02235174447, -187500.02235174447, -187500.02235174447, -0.168, 0.936, -0.23800000000000002, 192.0, 0.0, 0.0, 0.0, 0.0, 0.0, 0.0, 0.0, 0.0, 0.0, 1.7184662875016007E9, 0.0, 2024-06-15 10:44:47.501
102.0, 47824.95472728667, -138270.72987207532, 95617.20885243521, -187500.02235174447, 95409.29292551195, -187500.02235174447, -187500.02235174447, -187500.02235174447, -0.168, 0.936, -0.23800000000000002, 192.0, 0.0, 0.0, 0.0, 0.0, 0.0, 0.0, 0.0, 0.0, 0.0, 1.7184662875016131E9, 0.0, 2024-06-15 10:44:47.501
103.0, 48601.36492268621, -136518.35310677925, 96188.76530990188, -187500.02235174447, 95753.62154884596, -187500.02235174447, -187500.02235174447, -187500.02235174447, -0.168, 0.936, -0.23800000000000002, 192.0, 0.0, 0.0, 0.0, 0.0, 0.0, 0.0, 0.0, 0.0, 0.0, 1.7184662875016232E9, 0.0, 2024-06-15 10:44:47.501
104.0, 44555.92269372019, -141760.8206583048, 91993.20876517401, -187500.02235174447, 91656.79265937718, -187500.02235174447, -187500.02235174447, -187500.02235174447, -0.168, 0.936, -0.23800000000000002, 192.0, 0.0, 0.0, 0.0, 0.0, 0.0, 0.0, 0.0, 0.0, 0.0, 1.7184662875016332E9, 0.0, 2024-06-15 10:44:47.501
105.0, 42918.81387458013, -144727.9700312579, 90658.92137991445, -187500.02235174447, 90631.5404929567, -187500.02235174447, -187500.02235174447, -187500.02235174447, -0.168, 0.936, -0.23800000000000002, 192.0, 0.0, 0.0, 0.0, 0.0, 0.0, 0.0, 0.0, 0.0, 0.0, 1.718466287501643E9, 0.0, 2024-06-15 10:44:47.501
106.0, 46796.618020131355, -139669.52439183288, 94889.48075645934, -187500.02235174447, 94851.99688100778, -187500.02235174447, -187500.02235174447, -187500.02235174447, -0.168, 0.936, -0.23800000000000002, 192.0, 0.0, 0.0, 0.0, 0.0, 0.0, 0.0, 0.0, 0.0, 0.0, 1.7184662875016527E9, 0.0, 2024-06-15 10:44:47.501
107.0, 48618.464007194525, -136607.82713983383, 96555.84800909138, -187500.02235174447, 96242.85653148372, -187500.02235174447, -187500.02235174447, -187500.02235174447, -0.168, 0.936, -0.23800000000000002, 192.0, 0.0, 0.0, 0.0, 0.0, 0.0, 0.0, 0.0, 0.0, 0.0, 1.7184662875016627E9, 0.0, 2024-06-15 10:44:47.501
108.0, 45089.704703057374, -140962.01401496102, 92824.67130716698, -187500.02235174447, 92533.89746354788, -187500.02235174447, -187500.02235174447, -187500.02235174447, -0.168, 0.936, -0.23800000000000002, 192.0, 0.0, 0.0, 0.0, 0.0, 0.0, 0.0, 0.0, 0.0, 0.0, 1.7184662875016725E9, 0.0, 2024-06-15 10:44:47.501
109.0, 42439.01132810251, -145225.34104887737, 90384.9336963813, -187500.02235174447, 90404.82674894652, -187500.02235174447, -187500.02235174447, -187500.02235174447, -0.168, 0.936, -0.23800000000000002, 192.0, 0.0, 0.0, 0.0, 0.0, 0.0, 0.0, 0.0, 0.0, 0.0, 1.7184662875016828E9, 0.0, 2024-06-15 10:44:47.501
110.0, 45752.41157441278, -141078.6007140399, 94101.29119173184, -187500.02235174447, 94195.57084984433, -187500.02235174447, -187500.02235174447, -187500.02235174447, -0.168, 0.936, -0.23800000000000002, 192.0, 0.0, 0.0, 0.0, 0.0, 0.0, 0.0, 0.0, 0.0, 0.0, 1.7184662875016928E9, 0.0, 2024-06-15 10:44:47.501
111.0, 48423.40033333306, -136959.10715569343, 96688.08092928898, -187500.02235174447, 96512.35151438136, -187500.02235174447, -187500.02235174447, -187500.02235174447, -0.16, 0.9420000000000001, -0.23, 192.0, 251.0, 0.0, 29.0, 112.0, 248.0, 208.0, 0.0, 0.0, 0.0, 1.7184662875017025E9, 0.0, 2024-06-15 10:44:47.501
112.0, 45619.53045362597, -140201.92059301384, 93652.08818341354, -187500.02235174447, 93429.06247723848, -187500.02235174447, -187500.02235174447, -187500.02235174447, -0.16, 0.9420000000000001, -0.23, 192.0, 0.0, 0.0, 0.0, 0.0, 0.0, 0.0, 0.0, 0.0, 0.0, 1.7184662875017126E9, 0.0, 2024-06-15 10:44:47.501
113.0, 42224.68045052057, -145394.58845789297, 90377.66937943333, -187500.02235174447, 90416.47200780774, -187500.02235174447, -187500.02235174447, -187500.02235174447, -0.16, 0.9420000000000001, -0.23, 192.0, 0.0, 0.0, 0.0, 0.0, 0.0, 0.0, 0.0, 0.0, 0.0, 1.7184662875017228E9, 0.0, 2024-06-15 10:44:47.501
114.0, 44791.77830121259, -142465.16882958042, 93358.47566824862, -187500.02235174447, 93519.6764492603, -187500.02235174447, -187500.02235174447, -187500.02235174447, -0.16, 0.9420000000000001, -0.23, 192.0, 0.0, 0.0, 0.0, 0.0, 0.0, 0.0, 0.0, 0.0, 0.0, 1.7184662875017328E9, 0.0, 2024-06-15 10:44:47.501
115.0, 48273.97892164933, -137420.4918647399, 96799.39261667641, -187500.02235174447, 96682.53769666406, -187500.02235174447, -187500.02235174447, -187500.02235174447, -0.16, 0.9420000000000001, -0.23, 192.0, 0.0, 0.0, 0.0, 0.0, 0.0, 0.0, 0.0, 0.0, 0.0, 1.7184662875017428E9, 0.0, 2024-06-15 10:44:47.501
116.0, 46341.33533732121, -139382.61740000456, 94591.75552031465, -187500.02235174447, 94359.18561925717, -187500.02235174447, -187500.02235174447, -187500.02235174447, -0.16, 0.9420000000000001, -0.23, 192.0, 0.0, 0.0, 0.0, 0.0, 0.0, 0.0, 0.0, 0.0, 0.0, 1.7184662875017524E9, 0.0, 2024-06-15 10:44:47.501
117.0, 42400.81219682839, -145122.1430447272, 90660.28483632623, -187500.02235174447, 90655.85919092408, -187500.02235174447, -187500.02235174447, -187500.02235174447, -0.16, 0.9420000000000001, -0.23, 192.0, 0.0, 0.0, 0.0, 0.0, 0.0, 0.0, 0.0, 0.0, 0.0, 1.7184662875017624E9, 0.0, 2024-06-15 10:44:47.501
118.0, 43977.41484372793, -143646.95026242142, 92619.79521748963, -187500.02235174447, 92816.64703090752, -187500.02235174447, -187500.02235174447, -187500.02235174447, -0.16, 0.9420000000000001, -0.23, 192.0, 0.0, 0.0, 0.0, 0.0, 0.0, 0.0, 0.0, 0.0, 0.0, 1.7184662875017724E9, 0.0, 2024-06-15 10:44:47.501
119.0, 47993.17395605731, -138025.1736074893, 96669.79720232454, -187500.02235174447, 96633.29680362903, -187500.02235174447, -187500.02235174447, -187500.02235174447, -0.16, 0.9420000000000001, -0.23, 192.0, 0.0, 0.0, 0.0, 0.0, 0.0, 0.0, 0.0, 0.0, 0.0, 1.7184662875017824E9, 0.0, 2024-06-15 10:44:47.501
120.0, 47143.09241093307, -138528.1549129671, 95508.02058077104, -187500.02235174447, 95268.14165927669, -187500.02235174447, -187500.02235174447, -187500.02235174447, -0.16, 0.9420000000000001, -0.23, 192.0, 0.0, 0.0, 0.0, 0.0, 0.0, 0.0, 0.0, 0.0, 0.0, 1.7184662875017924E9, 0.0, 2024-06-15 10:44:47.501
121.0, 43015.68633504943, -144350.20319821875, 91272.81204137947, -187500.02235174447, 91184.85792694784, -187500.02235174447, -187500.02235174447, -187500.02235174447, -0.168, 0.9440000000000001, -0.232, 192.0, 250.0, 192.0, 29.0, 128.0, 248.0, 192.0, 0.0, 0.0, 0.0, 1.7184662879800181E9, 0.0, 2024-06-15 10:44:47.980
122.0, 43498.50636702852, -144479.7539090817, 92076.15608884765, -187500.02235174447, 92216.99443066055, -187500.02235174447, -187500.02235174447, -187500.02235174447, -0.168, 0.9440000000000001, -0.232, 192.0, 0.0, 0.0, 0.0, 0.0, 0.0, 0.0, 0.0, 0.0, 0.0, 1.7184662879802248E9, 0.0, 2024-06-15 10:44:47.980
123.0, 47770.08119464889, -138672.90481005964, 96446.6150339383, -187500.02235174447, 96404.2584781955, -187500.02235174447, -187500.02235174447, -187500.02235174447, -0.168, 0.9440000000000001, -0.232, 192.0, 0.0, 0.0, 0.0, 0.0, 0.0, 0.0, 0.0, 0.0, 0.0, 1.7184662879802604E9, 0.0, 2024-06-15 10:44:47.980
124.0, 47984.590886186474, -137742.93813025215, 96324.12747432322, -187500.02235174447, 96020.50137764233, -187500.02235174447, -187500.02235174447, -187500.02235174447, -0.168, 0.9440000000000001, -0.232, 192.0, 0.0, 0.0, 0.0, 0.0, 0.0, 0.0, 0.0, 0.0, 0.0, 1.7184662879802835E9, 0.0, 2024-06-15 10:44:47.980
125.0, 43922.54131109015, -143247.72575470517, 92050.40687923515, -187500.02235174447, 91832.99146091836, -187500.02235174447, -187500.02235174447, -187500.02235174447, -0.168, 0.9440000000000001, -0.232, 192.0, 0.0, 0.0, 0.0, 0.0, 0.0, 0.0, 0.0, 0.0, 0.0, 1.7184662879803057E9, 0.0, 2024-06-15 10:44:47.980
126.0, 43252.99480593143, -144972.3193016433, 91621.70042058235, -187500.02235174447, 91658.62550242252, -187500.02235174447, -187500.02235174447, -187500.02235174447, -0.168, 0.9440000000000001, -0.232, 192.0, 0.0, 0.0, 0.0, 0.0, 0.0, 0.0, 0.0, 0.0, 0.0, 1.7184662879803169E9, 0.0, 2024-06-15 10:44:47.980
127.0, 47509.37044732219, -139351.5931787006, 96038.22631099538, -187500.02235174447, 95958.51999026776, -187500.02235174447, -187500.02235174447, -187500.02235174447, -0.168, 0.9440000000000001, -0.232, 192.0, 0.0, 0.0, 0.0, 0.0, 0.0, 0.0, 0.0, 0.0, 0.0, 1.718466287980342E9, 0.0, 2024-06-15 10:44:47.980
128.0, 48709.99440073901, -137120.71026810532, 96920.8296443021, -187500.02235174447, 96551.2882532225, -187500.02235174447, -187500.02235174447, -187500.02235174447, -0.168, 0.9440000000000001, -0.232, 192.0, 0.0, 0.0, 0.0, 0.0, 0.0, 0.0, 0.0, 0.0, 0.0, 1.7184662879803517E9, 0.0, 2024-06-15 10:44:47.980
129.0, 44911.42718928184, -142036.99881279454, 92852.02984238027, -187500.02235174447, 92515.59138483899, -187500.02235174447, -187500.02235174447, -187500.02235174447, -0.168, 0.9440000000000001, -0.232, 192.0, 0.0, 0.0, 0.0, 0.0, 0.0, 0.0, 0.0, 0.0, 0.0, 1.7184662879803605E9, 0.0, 2024-06-15 10:44:47.980
130.0, 43158.67044433003, -145204.7774439785, 91262.61964590785, -187500.02235174447, 91185.7743484705, -187500.02235174447, -187500.02235174447, -187500.02235174447, -0.168, 0.9440000000000001, -0.232, 192.0, 0.0, 0.0, 0.0, 0.0, 0.0, 0.0, 0.0, 0.0, 0.0, 1.7184662879803696E9, 0.0, 2024-06-15 10:44:47.980
131.0, 47026.37160138746, -140241.5055324442, 95360.43201213265, -187500.02235174447, 95257.61398763824, -187500.02235174447, -187500.02235174447, -187500.02235174447, -0.164, 0.9460000000000001, -0.23, 192.0, 250.0, 224.0, 29.0, 144.0, 248.0, 208.0, 0.0, 0.0, 0.0, 1.7184662879803789E9, 0.0, 2024-06-15 10:44:47.980
132.0, 49197.01656067569, -136774.39233951477, 97262.453706557, -187500.02235174447, 96848.49939924473, -187500.02235174447, -187500.02235174447, -187500.02235174447, -0.164, 0.9460000000000001, -0.23, 192.0, 0.0, 0.0, 0.0, 0.0, 0.0, 0.0, 0.0, 0.0, 0.0, 1.7184662879803877E9, 0.0, 2024-06-15 10:44:47.980
133.0, 46011.93767928334, -140678.88446794564, 93750.2793968057, -187500.02235174447, 93297.96949600811, -187500.02235174447, -187500.02235174447, -187500.02235174447, -0.164, 0.9460000000000001, -0.23, 192.0, 0.0, 0.0, 0.0, 0.0, 0.0, 0.0, 0.0, 0.0, 0.0, 1.7184662879803967E9, 0.0, 2024-06-15 10:44:47.980
134.0, 43292.6691523396, -145059.736974208, 91100.48009162904, -187500.02235174447, 90907.78570267984, -187500.02235174447, -187500.02235174447, -187500.02235174447, -0.164, 0.9460000000000001, -0.23, 192.0, 0.0, 0.0, 0.0, 0.0, 0.0, 0.0, 0.0, 0.0, 0.0, 1.7184662879804056E9, 0.0, 2024-06-15 10:44:47.980
135.0, 46521.982136009, -141108.1050167209, 94608.25110772267, -187500.02235174447, 94480.53323990504, -187500.02235174447, -187500.02235174447, -187500.02235174447, -0.164, 0.9460000000000001, -0.23, 192.0, 0.0, 0.0, 0.0, 0.0, 0.0, 0.0, 0.0, 0.0, 0.0, 1.7184662879804142E9, 0.0, 2024-06-15 10:44:47.980
136.0, 49525.72131463543, -136610.86697707974, 97408.745874017, -187500.02235174447, 96978.20657231887, -187500.02235174447, -187500.02235174447, -187500.02235174447, -0.164, 0.9460000000000001, -0.23, 192.0, 0.0, 0.0, 0.0, 0.0, 0.0, 0.0, 0.0, 0.0, 0.0, 1.7184662879804237E9, 0.0, 2024-06-15 10:44:47.980
137.0, 47005.2939063661, -139446.90101705803, 94547.27554884859, -187500.02235174447, 94029.1397606301, -187500.02235174447, -187500.02235174447, -187500.02235174447, -0.164, 0.9460000000000001, -0.23, 192.0, 0.0, 0.0, 0.0, 0.0, 0.0, 0.0, 0.0, 0.0, 0.0, 1.7184662879804327E9, 0.0, 2024-06-15 10:44:47.980
138.0, 43553.469306644125, -144683.89239119203, 91092.34405664731, -187500.02235174447, 90793.18830885748, -187500.02235174447, -187500.02235174447, -187500.02235174447, -0.164, 0.9460000000000001, -0.23, 192.0, 0.0, 0.0, 0.0, 0.0, 0.0, 0.0, 0.0, 0.0, 0.0, 1.7184662879804416E9, 0.0, 2024-06-15 10:44:47.980
139.0, 45927.42573349783, -142034.9201005602, 93771.51355403823, -187500.02235174447, 93602.26614502266, -187500.02235174447, -187500.02235174447, -187500.02235174447, -0.164, 0.9460000000000001, -0.23, 192.0, 0.0, 0.0, 0.0, 0.0, 0.0, 0.0, 0.0, 0.0, 0.0, 1.7184662879804502E9, 0.0, 2024-06-15 10:44:47.980
140.0, 49582.941780441026, -136781.09786285137, 97320.59059388527, -187500.02235174447, 96874.91916119089, -187500.02235174447, -187500.02235174447, -187500.02235174447, -0.164, 0.9460000000000001, -0.23, 192.0, 0.0, 0.0, 0.0, 0.0, 0.0, 0.0, 0.0, 0.0, 0.0, 1.7184662879804592E9, 0.0, 2024-06-15 10:44:47.980
141.0, 48031.06016290905, -138235.95055770286, 95402.25212600853, -187500.02235174447, 94792.0271506342, -187500.02235174447, -187500.02235174447, -187500.02235174447, -0.164, 0.9400000000000001, -0.23600000000000002, 192.0, 250.0, 224.0, 29.0, 96.0, 248.0, 160.0, 0.0, 0.0, 0.0, 1.7184662879804678E9, 0.0, 2024-06-15 10:44:47.980
142.0, 44057.83642027812, -143961.46165865203, 91335.39692585432, -187500.02235174447, 90922.71666797598, -187500.02235174447, -187500.02235174447, -187500.02235174447, -0.164, 0.9400000000000001, -0.23600000000000002, 192.0, 0.0, 0.0, 0.0, 0.0, 0.0, 0.0, 0.0, 0.0, 0.0, 1.7184662879804764E9, 0.0, 2024-06-15 10:44:47.980
143.0, 45321.91697620356, -142919.26686993442, 92915.48644488888, -187500.02235174447, 92707.6822766879, -187500.02235174447, -187500.02235174447, -187500.02235174447, -0.164, 0.9400000000000001, -0.23600000000000002, 192.0, 0.0, 0.0, 0.0, 0.0, 0.0, 0.0, 0.0, 0.0, 0.0, 1.7184662879804854E9, 0.0, 2024-06-15 10:44:47.980
144.0, 49447.378450319586, -137169.7276436958, 97034.68943055742, -187500.02235174447, 96586.0005123616, -187500.02235174447, -187500.02235174447, -187500.02235174447, -0.164, 0.9400000000000001, -0.23600000000000002, 192.0, 0.0, 0.0, 0.0, 0.0, 0.0, 0.0, 0.0, 0.0, 0.0, 1.718466287980494E9, 0.0, 2024-06-15 10:44:47.980
145.0, 48857.1806379772, -137279.2511915268, 96083.39918653957, -187500.02235174447, 95418.0771610829, -187500.02235174447, -187500.02235174447, -187500.02235174447, -0.164, 0.9400000000000001, -0.23600000000000002, 192.0, 0.0, 0.0, 0.0, 0.0, 0.0, 0.0, 0.0, 0.0, 0.0, 1.7184662879805028E9, 0.0, 2024-06-15 10:44:47.980
146.0, 44744.54906517852, -143000.67192324068, 91799.73206516888, -187500.02235174447, 91269.50398320008, -187500.02235174447, -187500.02235174447, -187500.02235174447, -0.164, 0.9400000000000001, -0.23600000000000002, 192.0, 0.0, 0.0, 0.0, 0.0, 0.0, 0.0, 0.0, 0.0, 0.0, 1.718466287980512E9, 0.0, 2024-06-15 10:44:47.980
147.0, 44951.61562581249, -143500.34517053905, 92271.53268713149, -187500.02235174447, 91970.23117187395, -187500.02235174447, -187500.02235174447, -187500.02235174447, -0.164, 0.9400000000000001, -0.23600000000000002, 192.0, 0.0, 0.0, 0.0, 0.0, 0.0, 0.0, 0.0, 0.0, 0.0, 1.7184662879805205E9, 0.0, 2024-06-15 10:44:47.980
148.0, 49237.87554953999, -137675.9946556085, 96639.19766416523, -187500.02235174447, 96166.79354510231, -187500.02235174447, -187500.02235174447, -187500.02235174447, -0.164, 0.9400000000000001, -0.23600000000000002, 192.0, 0.0, 0.0, 0.0, 0.0, 0.0, 0.0, 0.0, 0.0, 0.0, 1.7184662879805293E9, 0.0, 2024-06-15 10:44:47.980
149.0, 49698.612057997234, -136381.06869233475, 96751.31401435305, -187500.02235174447, 96004.31871465668, -187500.02235174447, -187500.02235174447, -187500.02235174447, -0.164, 0.9400000000000001, -0.23600000000000002, 192.0, 0.0, 0.0, 0.0, 0.0, 0.0, 0.0, 0.0, 0.0, 0.0, 1.718466287980538E9, 0.0, 2024-06-15 10:44:47.980
150.0, 45697.87331794183, -141714.32902983774, 92496.12301541842, -187500.02235174447, 91820.69800146794, -187500.02235174447, -187500.02235174447, -187500.02235174447, -0.164, 0.9400000000000001, -0.23600000000000002, 192.0, 0.0, 0.0, 0.0, 0.0, 0.0, 0.0, 0.0, 0.0, 0.0, 1.7184662879805467E9, 0.0, 2024-06-15 10:44:47.980
151.0, 44683.21587839316, -143860.0517940583, 91689.51561325975, -187500.02235174447, 91287.18421306423, -187500.02235174447, -187500.02235174447, -187500.02235174447, -0.164, 0.9400000000000001, -0.23600000000000002, 192.0, 0.0, 0.0, 0.0, 0.0, 0.0, 0.0, 0.0, 0.0, 0.0, 1.7184662879805553E9, 0.0, 2024-06-15 10:44:47.980
152.0, 48826.35758237333, -138377.3476931271, 96008.85611878111, -187500.02235174447, 95518.03416228702, -187500.02235174447, -187500.02235174447, -187500.02235174447, -0.162, 0.9500000000000001, -0.234, 192.0, 250.0, 240.0, 29.0, 176.0, 248.0, 176.0, 0.0, 0.0, 0.0, 1.718466287980564E9, 0.0, 2024-06-15 10:44:47.980
153.0, 50295.023655298195, -135763.80291745698, 97166.184743188, -187500.02235174447, 96373.81540224736, -187500.02235174447, -187500.02235174447, -187500.02235174447, -0.162, 0.9500000000000001, -0.234, 192.0, 0.0, 0.0, 0.0, 0.0, 0.0, 0.0, 0.0, 0.0, 0.0, 1.718466287980573E9, 0.0, 2024-06-15 10:44:47.980
154.0, 46660.20532372061, -140382.61209519053, 93230.08724809733, -187500.02235174447, 92450.43604975178, -187500.02235174447, -187500.02235174447, -187500.02235174447, -0.162, 0.9500000000000001, -0.234, 192.0, 0.0, 0.0, 0.0, 0.0, 0.0, 0.0, 0.0, 0.0, 0.0, 1.7184662879805815E9, 0.0, 2024-06-15 10:44:47.980
155.0, 44603.12957800979, -143909.15857662662, 91299.56707949247, -187500.02235174447, 90792.24953559037, -187500.02235174447, -187500.02235174447, -187500.02235174447, -0.162, 0.9500000000000001, -0.234, 192.0, 0.0, 0.0, 0.0, 0.0, 0.0, 0.0, 0.0, 0.0, 0.0, 1.7184662879805903E9, 0.0, 2024-06-15 10:44:47.980
156.0, 48274.0459768827, -139207.78205487516, 95225.20395817804, -187500.02235174447, 94721.7532660667, -187500.02235174447, -187500.02235174447, -187500.02235174447, -0.162, 0.9500000000000001, -0.234, 192.0, 0.0, 0.0, 0.0, 0.0, 0.0, 0.0, 0.0, 0.0, 0.0, 1.7184662879805992E9, 0.0, 2024-06-15 10:44:47.980
157.0, 50675.89738081663, -135421.3071371683, 97380.80619344786, -187500.02235174447, 96566.57684642993, -187500.02235174447, -187500.02235174447, -187500.02235174447, -0.162, 0.9500000000000001, -0.234, 192.0, 0.0, 0.0, 0.0, 0.0, 0.0, 0.0, 0.0, 0.0, 0.0, 1.718466287980608E9, 0.0, 2024-06-15 10:44:47.980
158.0, 47673.67812081315, -139004.04590416502, 94038.1922171345, -187500.02235174447, 93169.02228224544, -187500.02235174447, -187500.02235174447, -187500.02235174447, -0.162, 0.9500000000000001, -0.234, 192.0, 0.0, 0.0, 0.0, 0.0, 0.0, 0.0, 0.0, 0.0, 0.0, 1.7184662879806166E9, 0.0, 2024-06-15 10:44:47.980
159.0, 44708.428646138746, -143655.80155322573, 91120.44019942764, -187500.02235174447, 90509.67878218637, -187500.02235174447, -187500.02235174447, -187500.02235174447, -0.162, 0.9500000000000001, -0.234, 192.0, 0.0, 0.0, 0.0, 0.0, 0.0, 0.0, 0.0, 0.0, 0.0, 1.7184662879806256E9, 0.0, 2024-06-15 10:44:47.980
160.0, 47682.372949406265, -140051.13572491833, 94390.2321923056, -187500.02235174447, 93870.24120929732, -187500.02235174447, -187500.02235174447, -187500.02235174447, -0.162, 0.9500000000000001, -0.234, 192.0, 0.0, 0.0, 0.0, 0.0, 0.0, 0.0, 0.0, 0.0, 0.0, 1.7184662879806342E9, 0.0, 2024-06-15 10:44:47.980
161.0, 50842.32847003084, -135337.10811580517, 97390.08216739682, -187500.02235174447, 96573.6399976778, -187500.02235174447, -187500.02235174447, -187500.02235174447, -0.162, 0.9500000000000001, -0.234, 192.0, 0.0, 0.0, 0.0, 0.0, 0.0, 0.0, 0.0, 0.0, 0.0, 1.7184662879806428E9, 0.0, 2024-06-15 10:44:47.980
162.0, 48608.76335010092, -137738.87011276127, 94810.04265666517, -187500.02235174447, 93873.92924713246, -187500.02235174447, -187500.02235174447, -187500.02235174447, -0.17200000000000001, 0.9460000000000001, -0.23, 192.0, 250.0, 160.0, 29.0, 144.0, 248.0, 208.0, 0.0, 0.0, 0.0, 1.7184662879806516E9, 0.0, 2024-06-15 10:44:47.980
163.0, 44946.63118679896, -143156.70945128315, 91119.0543912714, -187500.02235174447, 90414.01331591766, -187500.02235174447, -187500.02235174447, -187500.02235174447, -0.17200000000000001, 0.9460000000000001, -0.23, 192.0, 0.0, 0.0, 0.0, 0.0, 0.0, 0.0, 0.0, 0.0, 0.0, 1.7184662879806602E9, 0.0, 2024-06-15 10:44:47.980
164.0, 47014.61458380397, -140916.72938069457, 93504.56667000851, -187500.02235174447, 92961.37457625564, -187500.02235174447, -187500.02235174447, -187500.02235174447, -0.17200000000000001, 0.9460000000000001, -0.23, 192.0, 0.0, 0.0, 0.0, 0.0, 0.0, 0.0, 0.0, 0.0, 0.0, 1.7184662879806693E9, 0.0, 2024-06-15 10:44:47.980
165.0, 50800.15072824368, -135483.66850419863, 97224.81336889428, -187500.02235174447, 96414.85320506731, -187500.02235174447, -187500.02235174447, -187500.02235174447, -0.17200000000000001, 0.9460000000000001, -0.23, 192.0, 0.0, 0.0, 0.0, 0.0, 0.0, 0.0, 0.0, 0.0, 0.0, 1.7184662879806778E9, 0.0, 2024-06-15 10:44:47.980
166.0, 49479.47555535741, -136570.41031961565, 95554.66867144927, -187500.02235174447, 94570.49901133764, -187500.02235174447, -187500.02235174447, -187500.02235174447, -0.17200000000000001, 0.9460000000000001, -0.23, 192.0, 0.0, 0.0, 0.0, 0.0, 0.0, 0.0, 0.0, 0.0, 0.0, 1.718466287980687E9, 0.0, 2024-06-15 10:44:47.980
167.0, 45447.53378004239, -142298.581278155, 91416.98079311619, -187500.02235174447, 90616.34130672709, -187500.02235174447, -187500.02235174447, -187500.02235174447, -0.17200000000000001, 0.9460000000000001, -0.23, 192.0, 0.0, 0.0, 0.0, 0.0, 0.0, 0.0, 0.0, 0.0, 0.0, 1.7184662879806955E9, 0.0, 2024-06-15 10:44:47.980
168.0, 46414.358486456695, -141659.58960766668, 92692.84071836958, -187500.02235174447, 92113.52820557692, -187500.02235174447, -187500.02235174447, -187500.02235174447, -0.17200000000000001, 0.9460000000000001, -0.23, 192.0, 0.0, 0.0, 0.0, 0.0, 0.0, 0.0, 0.0, 0.0, 0.0, 1.7184662879807043E9, 0.0, 2024-06-15 10:44:47.980
169.0, 50570.21833303194, -135876.00867462263, 96876.68494900287, -187500.02235174447, 96077.92300914801, -187500.02235174447, -187500.02235174447, -187500.02235174447, -0.17200000000000001, 0.9460000000000001, -0.23, 192.0, 0.0, 0.0, 0.0, 0.0, 0.0, 0.0, 0.0, 0.0, 0.0, 1.718466287980713E9, 0.0, 2024-06-15 10:44:47.980
170.0, 50206.82367167756, -135628.37369780228, 96172.8061643608, -187500.02235174447, 95145.87761710616, -187500.02235174447, -187500.02235174447, -187500.02235174447, -0.17200000000000001, 0.9460000000000001, -0.23, 192.0, 0.0, 0.0, 0.0, 0.0, 0.0, 0.0, 0.0, 0.0, 0.0, 1.7184662879807217E9, 0.0, 2024-06-15 10:44:47.980
171.0, 46051.09793556904, -141279.2076205263, 91853.44330709497, -187500.02235174447, 90951.68452879007, -187500.02235174447, -187500.02235174447, -187500.02235174447, -0.17200000000000001, 0.9460000000000001, -0.23, 192.0, 0.0, 0.0, 0.0, 0.0, 0.0, 0.0, 0.0, 0.0, 0.0, 1.7184662879807303E9, 0.0, 2024-06-15 10:44:47.980
172.0, 45867.21013393523, -142258.57165558002, 91947.07476461826, -187500.02235174447, 91305.15501560629, -187500.02235174447, -187500.02235174447, -187500.02235174447, -0.166, 0.9440000000000001, -0.234, 192.0, 250.0, 208.0, 29.0, 128.0, 248.0, 176.0, 0.0, 0.0, 0.0, 1.7184662879807394E9, 0.0, 2024-06-15 10:44:47.980
173.0, 50096.96484767972, -136526.8244179278, 96300.99341881198, -187500.02235174447, 95515.93309830822, -187500.02235174447, -187500.02235174447, -187500.02235174447, -0.166, 0.9440000000000001, -0.234, 192.0, 0.0, 0.0, 0.0, 0.0, 0.0, 0.0, 0.0, 0.0, 0.0, 1.718466287980748E9, 0.0, 2024-06-15 10:44:47.980
174.0, 50768.791230772884, -134917.11883748995, 96660.5659318645, -187500.02235174447, 95609.02811396458, -187500.02235174447, -187500.02235174447, -187500.02235174447, -0.166, 0.9440000000000001, -0.234, 192.0, 0.0, 0.0, 0.0, 0.0, 0.0, 0.0, 0.0, 0.0, 0.0, 1.7184662879807568E9, 0.0, 2024-06-15 10:44:47.980
175.0, 46814.76763662906, -140084.50687939013, 92489.5292508041, -187500.02235174447, 91509.29349771662, -187500.02235174447, -187500.02235174447, -187500.02235174447, -0.166, 0.9440000000000001, -0.234, 192.0, 0.0, 0.0, 0.0, 0.0, 0.0, 0.0, 0.0, 0.0, 0.0, 1.7184662879807656E9, 0.0, 2024-06-15 10:44:47.980
176.0, 45528.737667648515, -142581.3084937702, 91426.14500834286, -187500.02235174447, 90720.16515972199, -187500.02235174447, -187500.02235174447, -187500.02235174447, -0.166, 0.9440000000000001, -0.234, 192.0, 0.0, 0.0, 0.0, 0.0, 0.0, 0.0, 0.0, 0.0, 0.0, 1.7184662879807744E9, 0.0, 2024-06-15 10:44:47.980
177.0, 49570.67067273506, -137274.4455664689, 95674.54107696308, -187500.02235174447, 94902.69063743242, -187500.02235174447, -187500.02235174447, -187500.02235174447, -0.166, 0.9440000000000001, -0.234, 192.0, 0.0, 0.0, 0.0, 0.0, 0.0, 0.0, 0.0, 0.0, 0.0, 1.718466287980783E9, 0.0, 2024-06-15 10:44:47.980
178.0, 51243.0952481145, -134385.03556073137, 97074.14025952104, -187500.02235174447, 96005.34689490162, -187500.02235174447, -187500.02235174447, -187500.02235174447, -0.166, 0.9440000000000001, -0.234, 192.0, 0.0, 0.0, 0.0, 0.0, 0.0, 0.0, 0.0, 0.0, 0.0, 1.7184662879807918E9, 0.0, 2024-06-15 10:44:47.980
179.0, 47772.58459002788, -138701.89502261818, 93336.16862728223, -187500.02235174447, 92267.62113185182, -187500.02235174447, -187500.02235174447, -187500.02235174447, -0.166, 0.9440000000000001, -0.234, 192.0, 0.0, 0.0, 0.0, 0.0, 0.0, 0.0, 0.0, 0.0, 0.0, 1.7184662879808009E9, 0.0, 2024-06-15 10:44:47.980
180.0, 45467.42683260761, -142514.5885365711, 91170.73162445208, -187500.02235174447, 90377.69173117778, -187500.02235174447, -187500.02235174447, -187500.02235174447, -0.166, 0.9440000000000001, -0.234, 192.0, 0.0, 0.0, 0.0, 0.0, 0.0, 0.0, 0.0, 0.0, 0.0, 1.7184662879808095E9, 0.0, 2024-06-15 10:44:47.980
181.0, 48956.601197314405, -138103.40471308288, 94938.18520762745, -187500.02235174447, 94180.3269601258, -187500.02235174447, -187500.02235174447, -187500.02235174447, -0.166, 0.9440000000000001, -0.234, 192.0, 0.0, 0.0, 0.0, 0.0, 0.0, 0.0, 0.0, 0.0, 0.0, 1.718466287980818E9, 0.0, 2024-06-15 10:44:47.980
182.0, 51543.033306960264, -134081.56592626165, 97309.61588735771, -187500.02235174447, 96251.75252577693, -187500.02235174447, -187500.02235174447, -187500.02235174447, -0.16, 0.9380000000000001, -0.23, 192.0, 251.0, 0.0, 29.0, 80.0, 248.0, 208.0, 0.0, 0.0, 0.0, 1.7184662879808269E9, 0.0, 2024-06-15 10:44:47.980
183.0, 48659.92649315912, -137400.79997787476, 94132.80715141383, -187500.02235174447, 93029.8603212667, -187500.02235174447, -187500.02235174447, -187500.02235174447, -0.16, 0.9380000000000001, -0.23, 192.0, 0.0, 0.0, 0.0, 0.0, 0.0, 0.0, 0.0, 0.0, 0.0, 1.7184662879808357E9, 0.0, 2024-06-15 10:44:47.980
184.0, 45450.461858566036, -142303.16338576836, 91004.21112826004, -187500.02235174447, 90170.53576356599, -187500.02235174447, -187500.02235174447, -187500.02235174447, -0.16, 0.9380000000000001, -0.23, 192.0, 0.0, 0.0, 0.0, 0.0, 0.0, 0.0, 0.0, 0.0, 0.0, 1.7184662879808445E9, 0.0, 2024-06-15 10:44:47.980
185.0, 48213.78567383119, -139043.58614010646, 94085.15323223511, -187500.02235174447, 93362.25311306157, -187500.02235174447, -187500.02235174447, -187500.02235174447, -0.16, 0.9380000000000001, -0.23, 192.0, 0.0, 0.0, 0.0, 0.0, 0.0, 0.0, 0.0, 0.0, 0.0, 1.7184662879808533E9, 0.0, 2024-06-15 10:44:47.980
186.0, 51598.465633209424, -134080.895373928, 97322.6693061196, -187500.02235174447, 96304.81556711384, -187500.02235174447, -187500.02235174447, -187500.02235174447, -0.16, 0.9380000000000001, -0.23, 192.0, 0.0, 0.0, 0.0, 0.0, 0.0, 0.0, 0.0, 0.0, 0.0, 1.718466287980862E9, 0.0, 2024-06-15 10:44:47.980
187.0, 49553.37042252665, -136157.59595127057, 94958.14531542604, -187500.02235174447, 93829.80690357769, -187500.02235174447, -187500.02235174447, -187500.02235174447, -0.16, 0.9380000000000001, -0.23, 192.0, 0.0, 0.0, 0.0, 0.0, 0.0, 0.0, 0.0, 0.0, 0.0, 1.7184662879808705E9, 0.0, 2024-06-15 10:44:47.980
188.0, 45762.738080351126, -141666.71981414795, 91164.67430170468, -187500.02235174447, 90270.17984034776, -187500.02235174447, -187500.02235174447, -187500.02235174447, -0.16, 0.9380000000000001, -0.23, 192.0, 0.0, 0.0, 0.0, 0.0, 0.0, 0.0, 0.0, 0.0, 0.0, 1.7184662879808793E9, 0.0, 2024-06-15 10:44:47.980
189.0, 47565.36156718273, -139827.97590827657, 93286.14542319125, -187500.02235174447, 92572.40951924438, -187500.02235174447, -187500.02235174447, -187500.02235174447, -0.16, 0.9380000000000001, -0.23, 192.0, 0.0, 0.0, 0.0, 0.0, 0.0, 0.0, 0.0, 0.0, 0.0, 1.718466287980888E9, 0.0, 2024-06-15 10:44:47.980
190.0, 51442.38340167802, -134317.46623724297, 97110.30538204973, -187500.02235174447, 96152.26491120637, -187500.02235174447, -187500.02235174447, -187500.02235174447, -0.16, 0.9380000000000001, -0.23, 192.0, 0.0, 0.0, 0.0, 0.0, 0.0, 0.0, 0.0, 0.0, 0.0, 1.7184662879808967E9, 0.0, 2024-06-15 10:44:47.980
191.0, 50307.69709440436, -135099.21849956733, 95659.16307677783, -187500.02235174447, 94541.08411563447, -187500.02235174447, -187500.02235174447, -187500.02235174447, -0.16, 0.9380000000000001, -0.23, 192.0, 0.0, 0.0, 0.0, 0.0, 0.0, 0.0, 0.0, 0.0, 0.0, 1.7184662879809053E9, 0.0, 2024-06-15 10:44:47.980
192.0, 46175.88772486302, -140849.0482984839, 91458.42092733634, -187500.02235174447, 90535.22682609879, -187500.02235174447, -187500.02235174447, -187500.02235174447, -0.16, 0.9380000000000001, -0.23, 192.0, 0.0, 0.0, 0.0, 0.0, 0.0, 0.0, 0.0, 0.0, 0.0, 1.7184662879809144E9, 0.0, 2024-06-15 10:44:47.980
193.0, 46827.30696526849, -140656.57742697923, 92434.94629084424, -187500.02235174447, 91750.73704132283, -187500.02235174447, -187500.02235174447, -187500.02235174447, -0.164, 0.9400000000000001, -0.232, 192.0, 250.0, 224.0, 29.0, 96.0, 248.0, 192.0, 0.0, 0.0, 0.0, 1.718466287980923E9, 0.0, 2024-06-15 10:44:47.980
194.0, 50963.8772563788, -134945.66201515938, 96635.7107920302, -187500.02235174447, 95772.08408976604, -187500.02235174447, -187500.02235174447, -187500.02235174447, -0.164, 0.9400000000000001, -0.232, 192.0, 0.0, 0.0, 0.0, 0.0, 0.0, 0.0, 0.0, 0.0, 0.0, 1.7184662879809315E9, 0.0, 2024-06-15 10:44:47.980
195.0, 50849.52573174545, -134350.74798473692, 96218.91781317208, -187500.02235174447, 95143.84360836072, -187500.02235174447, -187500.02235174447, -187500.02235174447, -0.164, 0.9400000000000001, -0.232, 192.0, 0.0, 0.0, 0.0, 0.0, 0.0, 0.0, 0.0, 0.0, 0.0, 1.7184662879809403E9, 0.0, 2024-06-15 10:44:47.980
196.0, 46619.56985230087, -139982.42646246272, 91870.36357764764, -187500.02235174447, 90949.65052004463, -187500.02235174447, -187500.02235174447, -187500.02235174447, -0.164, 0.9400000000000001, -0.232, 192.0, 0.0, 0.0, 0.0, 0.0, 0.0, 0.0, 0.0, 0.0, 0.0, 1.7184662879809492E9, 0.0, 2024-06-15 10:44:47.980
197.0, 46108.988953708285, -141410.79234013468, 91661.7323949018, -187500.02235174447, 91017.39865748867, -187500.02235174447, -187500.02235174447, -187500.02235174447, -0.164, 0.9400000000000001, -0.232, 192.0, 0.0, 0.0, 0.0, 0.0, 0.0, 0.0, 0.0, 0.0, 0.0, 1.7184662879809577E9, 0.0, 2024-06-15 10:44:47.980
198.0, 50266.011090995205, -135836.4013834478, 95986.16909815898, -187500.02235174447, 95228.6237750797, -187500.02235174447, -187500.02235174447, -187500.02235174447, -0.164, 0.9400000000000001, -0.232, 192.0, 0.0, 0.0, 0.0, 0.0, 0.0, 0.0, 0.0, 0.0, 0.0, 1.7184662879809666E9, 0.0, 2024-06-15 10:44:47.980
199.0, 51168.08279372249, -133921.2145115393, 96614.2531173531, -187500.02235174447, 95600.53445107157, -187500.02235174447, -187500.02235174447, -187500.02235174447, -0.164, 0.9400000000000001, -0.232, 192.0, 0.0, 0.0, 0.0, 0.0, 0.0, 0.0, 0.0, 0.0, 0.0, 1.7184662879809756E9, 0.0, 2024-06-15 10:44:47.980
200.0, 47229.68306895293, -138951.8545808619, 92499.4310735978, -187500.02235174447, 91569.97848391277, -187500.02235174447, -187500.02235174447, -187500.02235174447, -0.164, 0.9400000000000001, -0.232, 192.0, 0.0, 0.0, 0.0, 0.0, 0.0, 0.0, 0.0, 0.0, 0.0, 1.7184662879809842E9, 0.0, 2024-06-15 10:44:47.980
201.0, 45579.364368839786, -141908.0963025208, 91099.51896661747, -187500.02235174447, 90463.41067116389, -187500.02235174447, -187500.02235174447, -187500.02235174447, -0.164, 0.9400000000000001, -0.232, 192.0, 0.0, 0.0, 0.0, 0.0, 0.0, 0.0, 0.0, 0.0, 0.0, 1.7184662879809928E9, 0.0, 2024-06-15 10:44:47.980
202.0, 49449.43481080947, -136891.82840488295, 95217.53730982987, -187500.02235174447, 94547.09673489294, -187500.02235174447, -187500.02235174447, -187500.02235174447, -0.164, 0.9400000000000001, -0.232, 192.0, 0.0, 0.0, 0.0, 0.0, 0.0, 0.0, 0.0, 0.0, 0.0, 1.7184662879810016E9, 0.0, 2024-06-15 10:44:47.981
203.0, 51296.24769642922, -133778.14099528088, 96840.47512298527, -187500.02235174447, 95890.97301852381, -187500.02235174447, -187500.02235174447, -187500.02235174447, -0.166, 0.9440000000000001, -0.23, 192.0, 250.0, 208.0, 29.0, 128.0, 248.0, 208.0, 0.0, 0.0, 0.0, 1.7184662879810104E9, 0.0, 2024-06-15 10:44:47.981
204.0, 47826.04996276498, -137974.99394118716, 93161.06506121934, -187500.02235174447, 92239.21206464912, -187500.02235174447, -187500.02235174447, -187500.02235174447, -0.166, 0.9440000000000001, -0.23, 192.0, 0.0, 0.0, 0.0, 0.0, 0.0, 0.0, 0.0, 0.0, 0.0, 1.718466287981019E9, 0.0, 2024-06-15 10:44:47.981
205.0, 45152.37899451006, -142226.78747496457, 90674.9028772, -187500.02235174447, 90055.1113551988, -187500.02235174447, -187500.02235174447, -187500.02235174447, -0.166, 0.9440000000000001, -0.23, 192.0, 0.0, 0.0, 0.0, 0.0, 0.0, 0.0, 0.0, 0.0, 0.0, 1.718466287981028E9, 0.0, 2024-06-15 10:44:47.981
206.0, 48436.20788290595, -138167.9118475809, 94284.1061096318, -187500.02235174447, 93714.76247486622, -187500.02235174447, -187500.02235174447, -187500.02235174447, -0.166, 0.9440000000000001, -0.23, 192.0, 0.0, 0.0, 0.0, 0.0, 0.0, 0.0, 0.0, 0.0, 0.0, 1.7184662879810367E9, 0.0, 2024-06-15 10:44:47.981
207.0, 51182.34320668498, -133972.13178540848, 96872.66163500091, -187500.02235174447, 96007.35855190261, -187500.02235174447, -187500.02235174447, -187500.02235174447, -0.166, 0.9440000000000001, -0.23, 192.0, 0.0, 0.0, 0.0, 0.0, 0.0, 0.0, 0.0, 0.0, 0.0, 1.7184662879810455E9, 0.0, 2024-06-15 10:44:47.981
208.0, 48428.1836066465, -137057.25366559668, 93879.51718324628, -187500.02235174447, 92969.0412246038, -187500.02235174447, -187500.02235174447, -187500.02235174447, -0.166, 0.9440000000000001, -0.23, 192.0, 0.0, 0.0, 0.0, 0.0, 0.0, 0.0, 0.0, 0.0, 0.0, 1.718466287981054E9, 0.0, 2024-06-15 10:44:47.981
209.0, 44944.35130886451, -142259.84570501396, 90519.11121834652, -187500.02235174447, 89887.94265841755, -187500.02235174447, -187500.02235174447, -187500.02235174447, -0.166, 0.9440000000000001, -0.23, 192.0, 0.0, 0.0, 0.0, 0.0, 0.0, 0.0, 0.0, 0.0, 0.0, 1.718466287981063E9, 0.0, 2024-06-15 10:44:47.981
210.0, 47441.08586801122, -139424.4598656249, 93373.09370912239, -187500.02235174447, 92865.95497917593, -187500.02235174447, -187500.02235174447, -187500.02235174447, -0.166, 0.9440000000000001, -0.23, 192.0, 0.0, 0.0, 0.0, 0.0, 0.0, 0.0, 0.0, 0.0, 0.0, 1.7184662879810715E9, 0.0, 2024-06-15 10:44:47.981
211.0, 50921.81127331391, -134385.3708368982, 96771.1400116849, -187500.02235174447, 95976.69195850992, -187500.02235174447, -187500.02235174447, -187500.02235174447, -0.166, 0.9440000000000001, -0.23, 192.0, 0.0, 0.0, 0.0, 0.0, 0.0, 0.0, 0.0, 0.0, 0.0, 1.71846628798108E9, 0.0, 2024-06-15 10:44:47.981
212.0, 49054.03245139509, -136195.1468819555, 94643.11982907294, -187500.02235174447, 93732.86738787501, -187500.02235174447, -187500.02235174447, -187500.02235174447, -0.166, 0.9440000000000001, -0.23, 192.0, 0.0, 0.0, 0.0, 0.0, 0.0, 0.0, 0.0, 0.0, 0.0, 1.718466287981089E9, 0.0, 2024-06-15 10:44:47.981
213.0, 45021.1742545574, -141945.2449018055, 90658.54140025872, -187500.02235174447, 89996.10274983678, -187500.02235174447, -187500.02235174447, -187500.02235174447, -0.164, 0.9460000000000001, -0.234, 192.0, 250.0, 224.0, 29.0, 144.0, 248.0, 176.0, 0.0, 0.0, 0.0, 1.7184662879810977E9, 0.0, 2024-06-15 10:44:47.981
214.0, 46455.77626893238, -140660.62309272567, 92476.20761110874, -187500.02235174447, 92012.38656191666, -187500.02235174447, -187500.02235174447, -187500.02235174447, -0.164, 0.9460000000000001, -0.234, 192.0, 0.0, 0.0, 0.0, 0.0, 0.0, 0.0, 0.0, 0.0, 0.0, 1.7184662879811063E9, 0.0, 2024-06-15 10:44:47.981
215.0, 50427.278927240244, -135114.37298230804, 96460.71898468959, -187500.02235174447, 95746.33488015353, -187500.02235174447, -187500.02235174447, -187500.02235174447, -0.164, 0.9460000000000001, -0.234, 192.0, 0.0, 0.0, 0.0, 0.0, 0.0, 0.0, 0.0, 0.0, 0.0, 1.718466287981115E9, 0.0, 2024-06-15 10:44:47.981
216.0, 49563.67457672055, -135545.42637412864, 95325.56329078237, -187500.02235174447, 94422.61987002133, -187500.02235174447, -187500.02235174447, -187500.02235174447, -0.164, 0.9460000000000001, -0.234, 192.0, 0.0, 0.0, 0.0, 0.0, 0.0, 0.0, 0.0, 0.0, 0.0, 1.718466287981124E9, 0.0, 2024-06-15 10:44:47.981
217.0, 45327.77313325085, -141357.55048484213, 91064.20321037808, -187500.02235174447, 90343.49356216117, -187500.02235174447, -187500.02235174447, -187500.02235174447, -0.164, 0.9460000000000001, -0.234, 192.0, 0.0, 0.0, 0.0, 0.0, 0.0, 0.0, 0.0, 0.0, 0.0, 1.7184662879811325E9, 0.0, 2024-06-15 10:44:47.981
218.0, 45665.15036405926, -141639.3389271902, 91755.78853556974, -187500.02235174447, 91270.55451518948, -187500.02235174447, -187500.02235174447, -187500.02235174447, -0.164, 0.9460000000000001, -0.234, 192.0, 0.0, 0.0, 0.0, 0.0, 0.0, 0.0, 0.0, 0.0, 0.0, 1.7184662879811416E9, 0.0, 2024-06-15 10:44:47.981
219.0, 49883.39392940926, -135922.20973041173, 96066.85889564264, -187500.02235174447, 95390.62921889177, -187500.02235174447, -187500.02235174447, -187500.02235174447, -0.164, 0.9460000000000001, -0.234, 192.0, 0.0, 0.0, 0.0, 0.0, 0.0, 0.0, 0.0, 0.0, 0.0, 1.7184662879811502E9, 0.0, 2024-06-15 10:44:47.981
220.0, 50027.94266080173, -135008.53747231216, 95935.11771382306, -187500.02235174447, 95025.40171449205, -187500.02235174447, -187500.02235174447, -187500.02235174447, -0.164, 0.9460000000000001, -0.234, 192.0, 0.0, 0.0, 0.0, 0.0, 0.0, 0.0, 0.0, 0.0, 0.0, 1.718466287981159E9, 0.0, 2024-06-15 10:44:47.981
221.0, 45846.467715080704, -140523.09280909214, 91655.36214773204, -187500.02235174447, 90875.75565287539, -187500.02235174447, -187500.02235174447, -187500.02235174447, -0.164, 0.9460000000000001, -0.234, 192.0, 0.0, 0.0, 0.0, 0.0, 0.0, 0.0, 0.0, 0.0, 0.0, 1.7184662879811676E9, 0.0, 2024-06-15 10:44:47.981
222.0, 45029.08677209458, -142395.45373862432, 91146.05529857341, -187500.02235174447, 90642.42579250644, -187500.02235174447, -187500.02235174447, -187500.02235174447, -0.164, 0.9460000000000001, -0.234, 192.0, 0.0, 0.0, 0.0, 0.0, 0.0, 0.0, 0.0, 0.0, 0.0, 1.7184662879811764E9, 0.0, 2024-06-15 10:44:47.981
223.0, 49187.33825532654, -136925.69129773276, 95489.66979857323, -187500.02235174447, 94871.2417329838, -187500.02235174447, -187500.02235174447, -187500.02235174447, -0.166, 0.9500000000000001, -0.226, 192.0, 250.0, 208.0, 29.0, 176.0, 248.0, 240.0, 0.0, 0.0, 0.0, 1.7184662879811852E9, 0.0, 2024-06-15 10:44:47.981
224.0, 50382.37427262954, -134667.9415903022, 96431.7064203866, -187500.02235174447, 95527.31013623597, -187500.02235174447, -187500.02235174447, -187500.02235174447, -0.166, 0.9500000000000001, -0.226, 192.0, 0.0, 0.0, 0.0, 0.0, 0.0, 0.0, 0.0, 0.0, 0.0, 1.718466287981194E9, 0.0, 2024-06-15 10:44:47.981
225.0, 46517.467083629024, -139533.64813728907, 92410.26996496558, -187500.02235174447, 91575.23114385977, -187500.02235174447, -187500.02235174447, -187500.02235174447, -0.166, 0.9500000000000001, -0.226, 192.0, 0.0, 0.0, 0.0, 0.0, 0.0, 0.0, 0.0, 0.0, 0.0, 1.7184662879812028E9, 0.0, 2024-06-15 10:44:47.981
226.0, 44566.83034501438, -142884.84518347326, 90715.15836896401, -187500.02235174447, 90174.20144965667, -187500.02235174447, -187500.02235174447, -187500.02235174447, -0.166, 0.9500000000000001, -0.226, 192.0, 0.0, 0.0, 0.0, 0.0, 0.0, 0.0, 0.0, 0.0, 0.0, 1.7184662879812117E9, 0.0, 2024-06-15 10:44:47.981
227.0, 48327.488997875334, -138105.66223927288, 94747.6142344015, -187500.02235174447, 94179.18702115859, -187500.02235174447, -187500.02235174447, -187500.02235174447, -0.166, 0.9500000000000001, -0.226, 192.0, 0.0, 0.0, 0.0, 0.0, 0.0, 0.0, 0.0, 0.0, 0.0, 1.7184662879812212E9, 0.0, 2024-06-15 10:44:47.981
228.0, 50490.780233237776, -134648.94260751517, 96694.49587994766, -187500.02235174447, 95823.1131223575, -187500.02235174447, -187500.02235174447, -187500.02235174447, -0.166, 0.9500000000000001, -0.226, 192.0, 0.0, 0.0, 0.0, 0.0, 0.0, 0.0, 0.0, 0.0, 0.0, 1.7184662879812303E9, 0.0, 2024-06-15 10:44:47.981
229.0, 47196.73659762581, -138565.52702969636, 93187.03778827642, -187500.02235174447, 92322.11468483385, -187500.02235174447, -187500.02235174447, -187500.02235174447, -0.166, 0.9500000000000001, -0.226, 192.0, 0.0, 0.0, 0.0, 0.0, 0.0, 0.0, 0.0, 0.0, 0.0, 1.718466287981262E9, 0.0, 2024-06-15 10:44:47.981
230.0, 44287.366484089674, -143111.1789478277, 90459.72263332875, -187500.02235174447, 89891.18366136357, -187500.02235174447, -187500.02235174447, -187500.02235174447, -0.166, 0.9500000000000001, -0.226, 192.0, 0.0, 0.0, 0.0, 0.0, 0.0, 0.0, 0.0, 0.0, 0.0, 1.718466287981271E9, 0.0, 2024-06-15 10:44:47.981
231.0, 47414.621402576144, -139343.0324605742, 93911.92721270648, -187500.02235174447, 93400.07226467994, -187500.02235174447, -187500.02235174447, -187500.02235174447, -0.166, 0.9500000000000001, -0.226, 192.0, 0.0, 0.0, 0.0, 0.0, 0.0, 0.0, 0.0, 0.0, 0.0, 1.7184662879812803E9, 0.0, 2024-06-15 10:44:47.981
232.0, 50359.888417707494, -134932.51918941966, 96709.829176644, -187500.02235174447, 95909.21204199936, -187500.02235174447, -187500.02235174447, -187500.02235174447, -0.166, 0.9500000000000001, -0.226, 192.0, 0.0, 0.0, 0.0, 0.0, 0.0, 0.0, 0.0, 0.0, 0.0, 1.718466287981305E9, 0.0, 2024-06-15 10:44:47.981
233.0, 47775.71383425163, -137748.59312159935, 93898.9184974335, -187500.02235174447, 93057.44237392454, -187500.02235174447, -187500.02235174447, -187500.02235174447, -0.166, 0.9500000000000001, -0.226, 192.0, 0.0, 0.0, 0.0, 0.0, 0.0, 0.0, 0.0, 0.0, 0.0, 1.7184662879813137E9, 0.0, 2024-06-15 10:44:47.981
234.0, 44107.837272624645, -143150.51801806904, 90353.90947507734, -187500.02235174447, 89794.02062821634, -187500.02235174447, -187500.02235174447, -187500.02235174447, -0.162, 0.9460000000000001, -0.224, 192.0, 250.0, 240.0, 29.0, 144.0, 249.0, 0.0, 0.0, 0.0, 0.0, 1.7184662879813223E9, 0.0, 2024-06-15 10:44:47.981
235.0, 46313.932098619, -140761.16123928563, 92937.61467189965, -187500.02235174447, 92524.06269598755, -187500.02235174447, -187500.02235174447, -187500.02235174447, -0.162, 0.9460000000000001, -0.224, 192.0, 0.0, 0.0, 0.0, 0.0, 0.0, 0.0, 0.0, 0.0, 0.0, 1.718466287981331E9, 0.0, 2024-06-15 10:44:47.981
236.0, 49938.37922076932, -135599.45054047712, 96502.91907822122, -187500.02235174447, 95811.82549140758, -187500.02235174447, -187500.02235174447, -187500.02235174447, -0.162, 0.9460000000000001, -0.224, 192.0, 0.0, 0.0, 0.0, 0.0, 0.0, 0.0, 0.0, 0.0, 0.0, 1.7184662879813397E9, 0.0, 2024-06-15 10:44:47.981
237.0, 48313.8544337576, -137073.16810764887, 94625.01491606414, -187500.02235174447, 93804.54943234318, -187500.02235174447, -187500.02235174447, -187500.02235174447, -0.162, 0.9460000000000001, -0.224, 192.0, 0.0, 0.0, 0.0, 0.0, 0.0, 0.0, 0.0, 0.0, 0.0, 1.7184662879813485E9, 0.0, 2024-06-15 10:44:47.981
238.0, 44209.15773024056, -142873.71401473452, 90559.56787581061, -187500.02235174447, 89968.85597334577, -187500.02235174447, -187500.02235174447, -187500.02235174447, -0.162, 0.9460000000000001, -0.224, 192.0, 0.0, 0.0, 0.0, 0.0, 0.0, 0.0, 0.0, 0.0, 0.0, 1.7184662879813573E9, 0.0, 2024-06-15 10:44:47.981
239.0, 45370.01793027138, -142015.02704799498, 92102.50879556045, -187500.02235174447, 91712.91788970446, -187500.02235174447, -187500.02235174447, -187500.02235174447, -0.162, 0.9460000000000001, -0.224, 192.0, 0.0, 0.0, 0.0, 0.0, 0.0, 0.0, 0.0, 0.0, 0.0, 1.718466287981366E9, 0.0, 2024-06-15 10:44:47.981
240.0, 49462.756450504836, -136397.40781753158, 96225.84685395323, -187500.02235174447, 95589.04565442153, -187500.02235174447, -187500.02235174447, -187500.02235174447, -0.162, 0.9460000000000001, -0.224, 192.0, 0.0, 0.0, 0.0, 0.0, 0.0, 0.0, 0.0, 0.0, 0.0, 1.7184662879813747E9, 0.0, 2024-06-15 10:44:47.981
241.0, 48895.96091460716, -136446.2463791664, 95378.64868386372, -187500.02235174447, 94534.49035102014, -187500.02235174447, -187500.02235174447, -187500.02235174447, -0.162, 0.9460000000000001, -0.224, 192.0, 0.0, 0.0, 0.0, 0.0, 0.0, 0.0, 0.0, 0.0, 0.0, 1.7184662884605503E9, 0.0, 2024-06-15 10:44:48.460
242.0, 44659.88065718182, -142193.57278270397, 91099.42955963964, -187500.02235174447, 90423.8927869669, -187500.02235174447, -187500.02235174447, -187500.02235174447, -0.162, 0.9460000000000001, -0.224, 192.0, 0.0, 0.0, 0.0, 0.0, 0.0, 0.0, 0.0, 0.0, 0.0, 1.7184662884606316E9, 0.0, 2024-06-15 10:44:48.460
243.0, 44674.521049800045, -142941.05982077835, 91466.57931406252, -187500.02235174447, 91035.32475654183, -187500.02235174447, -187500.02235174447, -187500.02235174447, -0.162, 0.9460000000000001, -0.224, 192.0, 0.0, 0.0, 0.0, 0.0, 0.0, 0.0, 0.0, 0.0, 0.0, 1.718466288460719E9, 0.0, 2024-06-15 10:44:48.460
244.0, 48951.437944345234, -137246.26001671076, 95853.51149481673, -187500.02235174447, 95233.92113851561, -187500.02235174447, -187500.02235174447, -187500.02235174447, -0.16, 0.9440000000000001, -0.224, 192.0, 251.0, 0.0, 29.0, 128.0, 249.0, 0.0, 0.0, 0.0, 0.0, 1.7184662884607427E9, 0.0, 2024-06-15 10:44:48.460
245.0, 49419.125845328075, -135934.74905905116, 96037.39929645053, -187500.02235174447, 95157.09819282273, -187500.02235174447, -187500.02235174447, -187500.02235174447, -0.16, 0.9440000000000001, -0.224, 192.0, 0.0, 0.0, 0.0, 0.0, 0.0, 0.0, 0.0, 0.0, 0.0, 1.718466288460764E9, 0.0, 2024-06-15 10:44:48.460
246.0, 45297.263002069354, -141300.73235043674, 91803.88948963756, -187500.02235174447, 91039.52688449943, -187500.02235174447, -187500.02235174447, -187500.02235174447, -0.16, 0.9440000000000001, -0.224, 192.0, 0.0, 0.0, 0.0, 0.0, 0.0, 0.0, 0.0, 0.0, 0.0, 1.7184662884607863E9, 0.0, 2024-06-15 10:44:48.460
247.0, 44201.69224759248, -143561.47719162432, 90997.729122368, -187500.02235174447, 90502.4144652384, -187500.02235174447, -187500.02235174447, -187500.02235174447, -0.16, 0.9440000000000001, -0.224, 192.0, 0.0, 0.0, 0.0, 0.0, 0.0, 0.0, 0.0, 0.0, 0.0, 1.7184662884607983E9, 0.0, 2024-06-15 10:44:48.460
248.0, 48333.83689330064, -138219.41026680593, 95313.6498109877, -187500.02235174447, 94705.88352750344, -187500.02235174447, -187500.02235174447, -187500.02235174447, -0.16, 0.9440000000000001, -0.224, 192.0, 0.0, 0.0, 0.0, 0.0, 0.0, 0.0, 0.0, 0.0, 0.0, 1.7184662884608176E9, 0.0, 2024-06-15 10:44:48.460
249.0, 49809.990800618034, -135631.257072837, 96522.05217147496, -187500.02235174447, 95624.80844555002, -187500.02235174447, -187500.02235174447, -187500.02235174447, -0.16, 0.9440000000000001, -0.224, 192.0, 0.0, 0.0, 0.0, 0.0, 0.0, 0.0, 0.0, 0.0, 0.0, 1.7184662884608305E9, 0.0, 2024-06-15 10:44:48.460
250.0, 46078.523526015706, -140261.3091780316, 92613.67083950888, -187500.02235174447, 91779.19081201445, -187500.02235174447, -187500.02235174447, -187500.02235174447, -0.16, 0.9440000000000001, -0.224, 192.0, 0.0, 0.0, 0.0, 0.0, 0.0, 0.0, 0.0, 0.0, 0.0, 1.718466288460841E9, 0.0, 2024-06-15 10:44:48.460
251.0, 43892.43351130885, -143924.44716983405, 90655.81448743517, -187500.02235174447, 90113.82938788288, -187500.02235174447, -187500.02235174447, -187500.02235174447, -0.16, 0.9440000000000001, -0.224, 192.0, 0.0, 0.0, 0.0, 0.0, 0.0, 0.0, 0.0, 0.0, 0.0, 1.7184662884608617E9, 0.0, 2024-06-15 10:44:48.460
252.0, 47597.34691349827, -139321.86535857504, 94614.48724442569, -187500.02235174447, 94045.12125791566, -187500.02235174447, -187500.02235174447, -187500.02235174447, -0.16, 0.9440000000000001, -0.224, 192.0, 0.0, 0.0, 0.0, 0.0, 0.0, 0.0, 0.0, 0.0, 0.0, 1.7184662884608717E9, 0.0, 2024-06-15 10:44:48.460
253.0, 50067.43819325426, -135521.57706279482, 96841.21273055229, -187500.02235174447, 95947.56763548467, -187500.02235174447, -187500.02235174447, -187500.02235174447, -0.16, 0.9440000000000001, -0.224, 192.0, 0.0, 0.0, 0.0, 0.0, 0.0, 0.0, 0.0, 0.0, 0.0, 1.7184662884608812E9, 0.0, 2024-06-15 10:44:48.460
254.0, 46988.08306313551, -139100.9407163788, 93522.98450743969, -187500.02235174447, 92624.39967684743, -187500.02235174447, -187500.02235174447, -187500.02235174447, -0.168, 0.9440000000000001, -0.226, 192.0, 250.0, 192.0, 29.0, 128.0, 248.0, 240.0, 0.0, 0.0, 0.0, 1.7184662884608903E9, 0.0, 2024-06-15 10:44:48.460
255.0, 43901.44126432434, -143843.22093048345, 90585.80882380114, -187500.02235174447, 89976.6343804162, -187500.02235174447, -187500.02235174447, -187500.02235174447, -0.168, 0.9440000000000001, -0.226, 192.0, 0.0, 0.0, 0.0, 0.0, 0.0, 0.0, 0.0, 0.0, 0.0, 1.7184662884609005E9, 0.0, 2024-06-15 10:44:48.460
0.0, 46845.56834048848, -140398.37007503153, 93843.66498513997, -187500.02235174447, 93298.30477217493, -187500.02235174447, -187500.02235174447, -187500.02235174447, -0.168, 0.9440000000000001, -0.226, 192.0, 0.0, 0.0, 0.0, 0.0, 0.0, 0.0, 0.0, 0.0, 0.0, 1.7184662884609208E9, 0.0, 2024-06-15 10:44:48.460
1.0, 50110.10767341944, -135659.68849178415, 96938.30870846614, -187500.02235174447, 96068.89290438806, -187500.02235174447, -187500.02235174447, -187500.02235174447, -0.168, 0.9440000000000001, -0.226, 192.0, 0.0, 0.0, 0.0, 0.0, 0.0, 0.0, 0.0, 0.0, 0.0, 1.718466288460931E9, 0.0, 2024-06-15 10:44:48.460
2.0, 47890.24417284062, -137979.24077263367, 94425.70441075617, -187500.02235174447, 93471.55314344802, -187500.02235174447, -187500.02235174447, -187500.02235174447, -0.168, 0.9440000000000001, -0.226, 192.0, 0.0, 0.0, 0.0, 0.0, 0.0, 0.0, 0.0, 0.0, 0.0, 1.718466288460944E9, 0.0, 2024-06-15 10:44:48.460
3.0, 44145.83523819867, -143422.98578297923, 90732.10099126113, -187500.02235174447, 90051.17744817465, -187500.02235174447, -187500.02235174447, -187500.02235174447, -0.168, 0.9440000000000001, -0.226, 192.0, 0.0, 0.0, 0.0, 0.0, 0.0, 0.0, 0.0, 0.0, 0.0, 1.718466288460964E9, 0.0, 2024-06-15 10:44:48.460
4.0, 46110.12889267551, -141416.15675880393, 93034.68829806904, -187500.02235174447, 92516.44075112829, -187500.02235174447, -187500.02235174447, -187500.02235174447, -0.168, 0.9440000000000001, -0.226, 192.0, 0.0, 0.0, 0.0, 0.0, 0.0, 0.0, 0.0, 0.0, 0.0, 1.718466288460974E9, 0.0, 2024-06-15 10:44:48.460
5.0, 49989.452956849695, -136006.4981587527, 96824.51597744417, -187500.02235174447, 96011.80654904922, -187500.02235174447, -187500.02235174447, -187500.02235174447, -0.168, 0.9440000000000001, -0.226, 192.0, 0.0, 0.0, 0.0, 0.0, 0.0, 0.0, 0.0, 0.0, 0.0, 1.7184662884609847E9, 0.0, 2024-06-15 10:44:48.460
6.0, 48687.15091790568, -137030.2974617836, 95208.55190855885, -187500.02235174447, 94250.6008446933, -187500.02235174447, -187500.02235174447, -187500.02235174447, -0.168, 0.9440000000000001, -0.226, 192.0, 0.0, 0.0, 0.0, 0.0, 0.0, 0.0, 0.0, 0.0, 0.0, 1.7184662884609976E9, 0.0, 2024-06-15 10:44:48.460
7.0, 44549.35128085033, -142781.8483450232, 91054.36844281775, -187500.02235174447, 90323.19817819574, -187500.02235174447, -187500.02235174447, -187500.02235174447, -0.168, 0.9440000000000001, -0.226, 192.0, 0.0, 0.0, 0.0, 0.0, 0.0, 0.0, 0.0, 0.0, 0.0, 1.718466288461007E9, 0.0, 2024-06-15 10:44:48.461
8.0, 45468.18679191909, -142284.1867547258, 92305.17206253673, -187500.02235174447, 91779.90606783702, -187500.02235174447, -187500.02235174447, -187500.02235174447, -0.168, 0.9420000000000001, -0.224, 192.0, 250.0, 192.0, 29.0, 112.0, 249.0, 0.0, 0.0, 0.0, 0.0, 1.7184662884610167E9, 0.0, 2024-06-15 10:44:48.461
9.0, 49680.171868821606, -136579.79805228687, 96522.18628194169, -187500.02235174447, 95759.0530227486, -187500.02235174447, -187500.02235174447, -187500.02235174447, -0.168, 0.9420000000000001, -0.224, 192.0, 0.0, 0.0, 0.0, 0.0, 0.0, 0.0, 0.0, 0.0, 0.0, 1.7184662884610257E9, 0.0, 2024-06-15 10:44:48.461
