%OpenBCI Raw EXG Data
%Number of channels = 8
%Sample Rate = 250 Hz
%Board = OpenBCI_GUI$BoardCytonSerial
Sample Index, EXG Channel 0, EXG Channel 1, EXG Channel 2, EXG Channel 3, EXG Channel 4, EXG Channel 5, EXG Channel 6, EXG Channel 7, Accel Channel 0, Accel Channel 1, Accel Channel 2, Other, Other, Other, Other, Other, Other, Other, Analog Channel 0, Analog Channel 1, Analog Channel 2, Timestamp, Other, Timestamp (Formatted)
33.0, 78189.48664539894, 66131.0557879276, 73407.75560233064, -187500.02235174447, 108884.13147737164, -128310.94900500168, -103266.31108120813, -187500.02235174447, 0.0, 0.0, 0.0, 192.0, 0.0, 0.0, 0.0, 0.0, 0.0, 0.0, 0.0, 0.0, 0.0, 1.71846803248094E9, 0.0, 2024-06-15 11:13:52.480
34.0, 78129.87454293664, 66706.85907684077, 74940.8394027757, -187500.02235174447, 110833.1141868966, -127279.1924809447, -102206.25724867074, -187500.02235174447, 0.052000000000000005, 0.976, -0.154, 192.0, 1.0, 160.0, 30.0, 128.0, 251.0, 48.0, 0.0, 0.0, 0.0, 1.718468032480958E9, 0.0, 2024-06-15 11:13:52.480
35.0, 78050.48114663138, 66451.87037609462, 75194.1964261766, -187500.02235174447, 112018.76247152836, -126773.52896613229, -101584.25290396845, -187500.02235174447, 0.052000000000000005, 0.976, -0.154, 192.0, 0.0, 0.0, 0.0, 0.0, 0.0, 0.0, 0.0, 0.0, 0.0, 1.7184680324809685E9, 0.0, 2024-06-15 11:13:52.480
36.0, 78083.13704528059, 65832.32472328242, 73762.58954555864, -187500.02235174447, 110368.30966094848, -127663.44131987588, -102480.84842930418, -187500.02235174447, 0.052000000000000005, 0.976, -0.154, 192.0, 0.0, 0.0, 0.0, 0.0, 0.0, 0.0, 0.0, 0.0, 0.0, 1.718468032480978E9, 0.0, 2024-06-15 11:13:52.480
37.0, 78163.78213927534, 65980.36032680993, 73213.09425986938, -187500.02235174447, 108788.66717680302, -128394.76804670907, -103332.67341049593, -187500.02235174447, 0.052000000000000005, 0.976, -0.154, 192.0, 0.0, 0.0, 0.0, 0.0, 0.0, 0.0, 0.0, 0.0, 0.0, 1.7184680324809878E9, 0.0, 2024-06-15 11:13:52.480
38.0, 78113.28954855079, 66636.58519227328, 74682.52029210572, -187500.02235174447, 110420.6127429739, -127488.24834683519, -102430.69111474647, -187500.02235174447, 0.052000000000000005, 0.976, -0.154, 192.0, 0.0, 0.0, 0.0, 0.0, 0.0, 0.0, 0.0, 0.0, 0.0, 1.7184680324809983E9, 0.0, 2024-06-15 11:13:52.480
39.0, 78044.96026575092, 66536.15880443559, 75278.73072370657, -187500.02235174447, 111993.01326191584, -126781.1285592471, -101606.49288970148, -187500.02235174447, 0.052000000000000005, 0.976, -0.154, 192.0, 0.0, 0.0, 0.0, 0.0, 0.0, 0.0, 0.0, 0.0, 0.0, 1.718468032481008E9, 0.0, 2024-06-15 11:13:52.481
40.0, 78073.61520214262, 65927.49845117313, 74051.57524962131, -187500.02235174447, 110804.54865748271, -127452.97729408472, -102251.54188293719, -187500.02235174447, 0.052000000000000005, 0.976, -0.154, 192.0, 0.0, 0.0, 0.0, 0.0, 0.0, 0.0, 0.0, 0.0, 0.0, 1.7184680324810174E9, 0.0, 2024-06-15 11:13:52.481
41.0, 78189.77721807685, 65894.86490426838, 73129.61049432881, -187500.02235174447, 108821.41248243005, -128438.33159665247, -103350.21952989335, -187500.02235174447, 0.052000000000000005, 0.976, -0.154, 192.0, 0.0, 0.0, 0.0, 0.0, 0.0, 0.0, 0.0, 0.0, 0.0, 1.718468032481027E9, 0.0, 2024-06-15 11:13:52.481
42.0, 78165.25735440939, 66588.68540390556, 74433.23128619567, -187500.02235174447, 109995.57197041178, -127754.21175410888, -102702.6447895342, -187500.02235174447, 0.052000000000000005, 0.976, -0.154, 192.0, 0.0, 0.0, 0.0, 0.0, 0.0, 0.0, 0.0, 0.0, 0.0, 1.7184680324810364E9, 0.0, 2024-06-15 11:13:52.481
43.0, 78091.04956281776, 66630.48316603698, 75350.56923038593, -187500.02235174447, 111882.75210651782, -126865.46169107697, -101702.001893759, -187500.02235174447, 0.052000000000000005, 0.976, -0.154, 192.0, 0.0, 0.0, 0.0, 0.0, 0.0, 0.0, 0.0, 0.0, 0.0, 1.7184680324810455E9, 0.0, 2024-06-15 11:13:52.481
44.0, 78078.30906847824, 66036.19498445929, 74366.89130865232, -187500.02235174447, 111191.79263017091, -127312.09424878292, -102095.68316885033, -187500.02235174447, 0.046, 0.972, -0.154, 192.0, 1.0, 112.0, 30.0, 96.0, 251.0, 48.0, 0.0, 0.0, 0.0, 1.7184680324810555E9, 0.0, 2024-06-15 11:13:52.481
45.0, 78168.61011607767, 65799.31119672194, 73139.46761363359, -187500.02235174447, 109003.66860671862, -128392.9575554082, -103278.78335461419, -187500.02235174447, 0.046, 0.972, -0.154, 192.0, 0.0, 0.0, 0.0, 0.0, 0.0, 0.0, 0.0, 0.0, 0.0, 1.7184680324810653E9, 0.0, 2024-06-15 11:13:52.481
46.0, 78162.37397937465, 66463.98502158941, 74147.17366065666, -187500.02235174447, 109634.90422188095, -127950.59418089321, -102900.90476285276, -187500.02235174447, 0.046, 0.972, -0.154, 192.0, 0.0, 0.0, 0.0, 0.0, 0.0, 0.0, 0.0, 0.0, 0.0, 1.7184680324810743E9, 0.0, 2024-06-15 11:13:52.481
47.0, 78071.31297246373, 66654.44423609308, 75327.79280278597, -187500.02235174447, 111741.84670947156, -126880.86204300667, -101733.09317029634, -187500.02235174447, 0.046, 0.972, -0.154, 192.0, 0.0, 0.0, 0.0, 0.0, 0.0, 0.0, 0.0, 0.0, 0.0, 1.718468032481084E9, 0.0, 2024-06-15 11:13:52.481
48.0, 78070.01657128532, 66145.38325612346, 74627.95968389031, -187500.02235174447, 111547.76651236613, -127099.46210377957, -101873.08214581992, -187500.02235174447, 0.046, 0.972, -0.154, 192.0, 0.0, 0.0, 0.0, 0.0, 0.0, 0.0, 0.0, 0.0, 0.0, 1.718468032481094E9, 0.0, 2024-06-15 11:13:52.481
49.0, 78157.9930374614, 65765.60476608334, 73201.94073938618, -187500.02235174447, 109271.73307797112, -128266.8266614469, -103123.55048937208, -187500.02235174447, 0.046, 0.972, -0.154, 192.0, 0.0, 0.0, 0.0, 0.0, 0.0, 0.0, 0.0, 0.0, 0.0, 1.718468032481104E9, 0.0, 2024-06-15 11:13:52.481
50.0, 78181.81999705077, 66347.04069459924, 73838.11609007312, -187500.02235174447, 109272.62714774933, -128163.33808461882, -103106.49610835269, -187500.02235174447, 0.046, 0.972, -0.154, 192.0, 0.0, 0.0, 0.0, 0.0, 0.0, 0.0, 0.0, 0.0, 0.0, 1.7184680324811132E9, 0.0, 2024-06-15 11:13:52.481
51.0, 78099.36441175514, 66694.38680343471, 75232.753185362, -187500.02235174447, 111445.44022624973, -127063.49814695098, -101928.02273369108, -187500.02235174447, 0.046, 0.972, -0.154, 192.0, 0.0, 0.0, 0.0, 0.0, 0.0, 0.0, 0.0, 0.0, 0.0, 1.7184680324811227E9, 0.0, 2024-06-15 11:13:52.481
52.0, 78064.94272529396, 66253.85627196507, 74878.0757043452, -187500.02235174447, 111793.56864614114, -126996.86759672972, -101761.07755435439, -187500.02235174447, 0.046, 0.972, -0.154, 192.0, 0.0, 0.0, 0.0, 0.0, 0.0, 0.0, 0.0, 0.0, 0.0, 1.7184680324811325E9, 0.0, 2024-06-15 11:13:52.481
53.0, 78154.17088915955, 65761.13441719227, 73357.39712207284, -187500.02235174447, 109616.95577108333, -128127.82116267935, -102949.78802797652, -187500.02235174447, 0.046, 0.972, -0.154, 192.0, 0.0, 0.0, 0.0, 0.0, 0.0, 0.0, 0.0, 0.0, 0.0, 1.7184680324811428E9, 0.0, 2024-06-15 11:13:52.481
54.0, 78200.64016588214, 66208.81750688762, 73578.70174392483, -187500.02235174447, 109009.23419108799, -128330.1938569777, -103260.74549683876, -187500.02235174447, 0.046, 0.972, -0.154, 192.0, 0.0, 0.0, 0.0, 0.0, 0.0, 0.0, 0.0, 0.0, 0.0, 1.7184680324811523E9, 0.0, 2024-06-15 11:13:52.481
55.0, 78128.2428655914, 66695.7949633354, 75093.27829996089, -187500.02235174447, 111113.74033853297, -127230.80095419896, -102114.3021719816, -187500.02235174447, 0.044, 0.972, -0.152, 192.0, 1.0, 96.0, 30.0, 96.0, 251.0, 64.0, 0.0, 0.0, 0.0, 1.7184680324811664E9, 0.0, 2024-06-15 11:13:52.481
56.0, 78072.81053934223, 66360.45174127242, 75085.65635510163, -187500.02235174447, 111955.23881378637, -126909.29346195383, -101679.87366674826, -187500.02235174447, 0.044, 0.972, -0.152, 192.0, 0.0, 0.0, 0.0, 0.0, 0.0, 0.0, 0.0, 0.0, 0.0, 1.7184680324811761E9, 0.0, 2024-06-15 11:13:52.481
57.0, 78146.52659255583, 65789.81170532844, 73579.17113055839, -187500.02235174447, 110026.23856380447, -127941.00528252189, -102736.50768238398, -187500.02235174447, 0.044, 0.972, -0.152, 192.0, 0.0, 0.0, 0.0, 0.0, 0.0, 0.0, 0.0, 0.0, 0.0, 1.7184680324811864E9, 0.0, 2024-06-15 11:13:52.481
58.0, 78216.88988410114, 66083.11129607097, 73360.97340118568, -187500.02235174447, 108830.06260753424, -128472.21684124671, -103383.18835296492, -187500.02235174447, 0.044, 0.972, -0.152, 192.0, 0.0, 0.0, 0.0, 0.0, 0.0, 0.0, 0.0, 0.0, 0.0, 1.7184680324811957E9, 0.0, 2024-06-15 11:13:52.481
59.0, 78130.65685399256, 66668.41407637764, 74892.13495160759, -187500.02235174447, 110735.25824967126, -127428.45743041724, -102318.06067443619, -187500.02235174447, 0.044, 0.972, -0.152, 192.0, 0.0, 0.0, 0.0, 0.0, 0.0, 0.0, 0.0, 0.0, 0.0, 1.7184680324812052E9, 0.0, 2024-06-15 11:13:52.481
60.0, 78068.27313521781, 66454.70904764046, 75226.71821435908, -187500.02235174447, 112020.52825934032, -126878.13513018313, -101648.04478264389, -187500.02235174447, 0.044, 0.972, -0.152, 192.0, 0.0, 0.0, 0.0, 0.0, 0.0, 0.0, 0.0, 0.0, 0.0, 1.7184680324812148E9, 0.0, 2024-06-15 11:13:52.481
61.0, 78101.30901352275, 65832.4364820047, 73838.6301801956, -187500.02235174447, 110482.30355767054, -127716.41495423496, -102481.04959500428, -187500.02235174447, 0.044, 0.972, -0.152, 192.0, 0.0, 0.0, 0.0, 0.0, 0.0, 0.0, 0.0, 0.0, 0.0, 1.718468032481224E9, 0.0, 2024-06-15 11:13:52.481
62.0, 78180.27772668336, 65934.29338148754, 73194.81053290493, -187500.02235174447, 108814.05875850425, -128491.46169322274, -103372.01248073728, -187500.02235174447, 0.044, 0.972, -0.152, 192.0, 0.0, 0.0, 0.0, 0.0, 0.0, 0.0, 0.0, 0.0, 0.0, 1.7184680324812336E9, 0.0, 2024-06-15 11:13:52.481
63.0, 78134.18842961651, 66596.88849412066, 74619.57777971958, -187500.02235174447, 110346.71787580465, -127623.11877287852, -102517.1923657885, -187500.02235174447, 0.044, 0.972, -0.152, 192.0, 0.0, 0.0, 0.0, 0.0, 0.0, 0.0, 0.0, 0.0, 0.0, 1.7184680324812431E9, 0.0, 2024-06-15 11:13:52.481
64.0, 78054.03507399978, 66518.92560946055, 75290.35363082333, -187500.02235174447, 112004.77027949934, -126876.77167377135, -101654.81736121385, -187500.02235174447, 0.044, 0.972, -0.152, 192.0, 0.0, 0.0, 0.0, 0.0, 0.0, 0.0, 0.0, 0.0, 0.0, 1.718468032481253E9, 0.0, 2024-06-15 11:13:52.481
65.0, 78077.61616440013, 65912.70159634372, 74104.70534619158, -187500.02235174447, 110911.2782372568, -127532.16952468986, -102276.79935417169, -187500.02235174447, 0.044, 0.978, -0.156, 192.0, 1.0, 96.0, 30.0, 144.0, 251.0, 32.0, 0.0, 0.0, 0.0, 1.7184680324812624E9, 0.0, 2024-06-15 11:13:52.481
66.0, 78178.80251154931, 65832.54824072699, 73109.04688942991, -187500.02235174447, 108886.07607913925, -128520.47425752573, -103376.7510505618, -187500.02235174447, 0.044, 0.978, -0.156, 192.0, 0.0, 0.0, 0.0, 0.0, 0.0, 0.0, 0.0, 0.0, 0.0, 1.7184680324812737E9, 0.0, 2024-06-15 11:13:52.481
67.0, 78149.40996759057, 66506.98977792142, 74330.03328204552, -187500.02235174447, 109940.58667905173, -127881.4378835485, -102777.97016834858, -187500.02235174447, 0.044, 0.978, -0.156, 192.0, 0.0, 0.0, 0.0, 0.0, 0.0, 0.0, 0.0, 0.0, 0.0, 1.7184680324812884E9, 0.0, 2024-06-15 11:13:52.481
68.0, 78068.98839104037, 66586.58433992676, 75318.2262561591, -187500.02235174447, 111902.75691780531, -126945.03390133785, -101730.14274002824, -187500.02235174447, 0.044, 0.978, -0.156, 192.0, 0.0, 0.0, 0.0, 0.0, 0.0, 0.0, 0.0, 0.0, 0.0, 1.7184680324813018E9, 0.0, 2024-06-15 11:13:52.481
69.0, 78066.46264391692, 66012.45743184775, 74400.95536720222, -187500.02235174447, 111338.91181217573, -127322.73367914364, -102043.7377147362, -187500.02235174447, 0.044, 0.978, -0.156, 192.0, 0.0, 0.0, 0.0, 0.0, 0.0, 0.0, 0.0, 0.0, 0.0, 1.7184680324813178E9, 0.0, 2024-06-15 11:13:52.481
70.0, 78166.93373524354, 65751.7690362655, 73111.79615399792, -187500.02235174447, 109102.01628232197, -128444.65714033332, -103262.17600848389, -187500.02235174447, 0.044, 0.978, -0.156, 192.0, 0.0, 0.0, 0.0, 0.0, 0.0, 0.0, 0.0, 0.0, 0.0, 1.7184680324813323E9, 0.0, 2024-06-15 11:13:52.481
71.0, 78170.51001435638, 66402.58477957068, 74035.21377268003, -187500.02235174447, 109567.93839549285, -128103.05542982287, -102989.32826391797, -187500.02235174447, 0.044, 0.978, -0.156, 192.0, 0.0, 0.0, 0.0, 0.0, 0.0, 0.0, 0.0, 0.0, 0.0, 1.7184680324813476E9, 0.0, 2024-06-15 11:13:52.481
72.0, 78068.45194917345, 66629.45498579205, 75289.48191278958, -187500.02235174447, 111716.05279637013, -127009.58573932479, -101800.10370017335, -187500.02235174447, 0.044, 0.978, -0.156, 192.0, 0.0, 0.0, 0.0, 0.0, 0.0, 0.0, 0.0, 0.0, 0.0, 1.7184680324813573E9, 0.0, 2024-06-15 11:13:52.481
73.0, 78045.67552157349, 66125.04316866913, 74663.70012327435, -187500.02235174447, 111660.32989744305, -127138.66706355418, -101842.05792451596, -187500.02235174447, 0.044, 0.978, -0.156, 192.0, 0.0, 0.0, 0.0, 0.0, 0.0, 0.0, 0.0, 0.0, 0.0, 1.7184680324813783E9, 0.0, 2024-06-15 11:13:52.481
74.0, 78138.97170292995, 65724.92459117468, 73201.80662891944, -187500.02235174447, 109397.05930913202, -128289.75955125804, -103067.51466602263, -187500.02235174447, 0.044, 0.978, -0.156, 192.0, 0.0, 0.0, 0.0, 0.0, 0.0, 0.0, 0.0, 0.0, 0.0, 1.718468032481388E9, 0.0, 2024-06-15 11:13:52.481
75.0, 78188.2572994539, 66289.75317356028, 73731.56532425467, -187500.02235174447, 109229.9800193286, -128286.13856865629, -103157.03340256613, -187500.02235174447, 0.042, 0.978, -0.152, 192.0, 1.0, 80.0, 30.0, 144.0, 251.0, 64.0, 0.0, 0.0, 0.0, 1.7184680324813976E9, 0.0, 2024-06-15 11:13:52.481
76.0, 78096.05635357575, 66667.96704148853, 75174.9962776895, -187500.02235174447, 111402.63663561782, -127180.2189564966, -101981.2198854947, -187500.02235174447, 0.042, 0.978, -0.152, 192.0, 0.0, 0.0, 0.0, 0.0, 0.0, 0.0, 0.0, 0.0, 0.0, 1.7184680324814184E9, 0.0, 2024-06-15 11:13:52.481
77.0, 78049.78824255327, 66244.44618754937, 74899.93571042249, -187500.02235174447, 111868.46934181087, -127060.1453852827, -101757.34481303034, -187500.02235174447, 0.042, 0.978, -0.152, 192.0, 0.0, 0.0, 0.0, 0.0, 0.0, 0.0, 0.0, 0.0, 0.0, 1.718468032481428E9, 0.0, 2024-06-15 11:13:52.481
78.0, 78130.76861271485, 65741.73310300507, 73373.37861935838, -187500.02235174447, 109738.48220568684, -128175.00569522449, -102922.04951310749, -187500.02235174447, 0.042, 0.978, -0.152, 192.0, 0.0, 0.0, 0.0, 0.0, 0.0, 0.0, 0.0, 0.0, 0.0, 1.7184680324814384E9, 0.0, 2024-06-15 11:13:52.481
79.0, 78172.40991263508, 66151.73115154877, 73482.16455962235, -187500.02235174447, 108976.2206645275, -128458.0234835176, -103315.32845679861, -187500.02235174447, 0.042, 0.978, -0.152, 192.0, 0.0, 0.0, 0.0, 0.0, 0.0, 0.0, 0.0, 0.0, 0.0, 1.7184680324814484E9, 0.0, 2024-06-15 11:13:52.481
80.0, 78091.89892910706, 66652.65609653665, 75005.52535122936, -187500.02235174447, 111047.44506447852, -127361.29043832904, -102175.83652446706, -187500.02235174447, 0.042, 0.978, -0.152, 192.0, 0.0, 0.0, 0.0, 0.0, 0.0, 0.0, 0.0, 0.0, 0.0, 1.7184680324814744E9, 0.0, 2024-06-15 11:13:52.481
81.0, 78037.42772786948, 66352.13689233505, 75081.2754131884, -187500.02235174447, 112000.97048294194, -126985.11057914622, -101685.10397495079, -187500.02235174447, 0.042, 0.978, -0.152, 192.0, 0.0, 0.0, 0.0, 0.0, 0.0, 0.0, 0.0, 0.0, 0.0, 1.718468032481484E9, 0.0, 2024-06-15 11:13:52.481
82.0, 78080.70070513496, 65762.78844628196, 73598.84066567906, -187500.02235174447, 110160.9525276366, -127962.64177115462, -102683.22112360253, -187500.02235174447, 0.042, 0.978, -0.152, 192.0, 0.0, 0.0, 0.0, 0.0, 0.0, 0.0, 0.0, 0.0, 0.0, 1.7184680324814937E9, 0.0, 2024-06-15 11:13:52.481
83.0, 78153.1427089146, 66001.43802183129, 73262.96100174917, -187500.02235174447, 108825.25698247636, -128572.95615350678, -103413.29615274623, -187500.02235174447, 0.042, 0.978, -0.152, 192.0, 0.0, 0.0, 0.0, 0.0, 0.0, 0.0, 0.0, 0.0, 0.0, 1.7184680324815028E9, 0.0, 2024-06-15 11:13:52.481
84.0, 78109.26623454884, 66632.85245094926, 74789.36163060208, -187500.02235174447, 110631.12147225399, -127604.79034242516, -102433.55213803676, -187500.02235174447, 0.042, 0.978, -0.152, 192.0, 0.0, 0.0, 0.0, 0.0, 0.0, 0.0, 0.0, 0.0, 0.0, 1.718468032481512E9, 0.0, 2024-06-15 11:13:52.481
85.0, 78030.74455627735, 66443.22025099043, 75230.22743823857, -187500.02235174447, 112042.72354158445, -126950.24185779595, -101659.8465037163, -187500.02235174447, 0.048, 0.978, -0.158, 192.0, 1.0, 128.0, 30.0, 144.0, 251.0, 16.0, 0.0, 0.0, 0.0, 1.718468032481542E9, 0.0, 2024-06-15 11:13:52.481
86.0, 78062.59579212616, 65827.1838220577, 73874.48237830191, -187500.02235174447, 110597.77266952666, -127738.36436729008, -102437.93307994999, -187500.02235174447, 0.048, 0.978, -0.158, 192.0, 0.0, 0.0, 0.0, 0.0, 0.0, 0.0, 0.0, 0.0, 0.0, 1.7184680324815512E9, 0.0, 2024-06-15 11:13:52.481
87.0, 78172.32050565726, 65900.2069711932, 73139.22174444459, -187500.02235174447, 108806.25799968935, -128601.74520036521, -103418.70527490441, -187500.02235174447, 0.048, 0.978, -0.158, 192.0, 0.0, 0.0, 0.0, 0.0, 0.0, 0.0, 0.0, 0.0, 0.0, 1.7184680324815612E9, 0.0, 2024-06-15 11:13:52.481
88.0, 78129.62867374762, 66566.02073502788, 74536.11636592346, -187500.02235174447, 110228.61125810281, -127784.31955389018, -102617.26112571493, -187500.02235174447, 0.048, 0.978, -0.158, 192.0, 0.0, 0.0, 0.0, 0.0, 0.0, 0.0, 0.0, 0.0, 0.0, 1.7184680324815707E9, 0.0, 2024-06-15 11:13:52.481
89.0, 78049.63178034208, 66527.68749328703, 75292.81232271342, -187500.02235174447, 111975.51184600734, -126957.8638026552, -101674.64335854571, -187500.02235174447, 0.048, 0.978, -0.158, 192.0, 0.0, 0.0, 0.0, 0.0, 0.0, 0.0, 0.0, 0.0, 0.0, 1.718468032481584E9, 0.0, 2024-06-15 11:13:52.481
90.0, 78078.93491732299, 65940.08248330146, 74168.005486489, -187500.02235174447, 110995.99134874242, -127559.46100466979, -102238.15318800845, -187500.02235174447, 0.048, 0.978, -0.158, 192.0, 0.0, 0.0, 0.0, 0.0, 0.0, 0.0, 0.0, 0.0, 0.0, 1.7184680324815943E9, 0.0, 2024-06-15 11:13:52.481
91.0, 78160.76465377386, 65805.79320261398, 73099.99443292552, -187500.02235174447, 108911.57941956275, -128578.87936578743, -103369.06205046918, -187500.02235174447, 0.048, 0.978, -0.158, 192.0, 0.0, 0.0, 0.0, 0.0, 0.0, 0.0, 0.0, 0.0, 0.0, 1.718468032481604E9, 0.0, 2024-06-15 11:13:52.481
92.0, 78141.83272622022, 66477.30666128476, 74250.10344387335, -187500.02235174447, 109816.19922115795, -128021.6727282611, -102861.9233205227, -187500.02235174447, 0.048, 0.978, -0.158, 192.0, 0.0, 0.0, 0.0, 0.0, 0.0, 0.0, 0.0, 0.0, 0.0, 1.7184680324816132E9, 0.0, 2024-06-15 11:13:52.481
93.0, 78072.36350445313, 66592.77577314088, 75299.31668034992, -187500.02235174447, 111815.36159698507, -127064.01223707346, -101799.6790170287, -187500.02235174447, 0.048, 0.978, -0.158, 192.0, 0.0, 0.0, 0.0, 0.0, 0.0, 0.0, 0.0, 0.0, 0.0, 1.718468032481623E9, 0.0, 2024-06-15 11:13:52.481
94.0, 78058.5277746353, 66034.27273443613, 74464.12139703291, -187500.02235174447, 111382.29654816349, -127377.20488038122, -102046.57638628202, -187500.02235174447, 0.048, 0.978, -0.158, 192.0, 0.0, 0.0, 0.0, 0.0, 0.0, 0.0, 0.0, 0.0, 0.0, 1.7184680324816325E9, 0.0, 2024-06-15 11:13:52.481
95.0, 78140.40221457508, 65719.51546901649, 73134.93020950917, -187500.02235174447, 109157.20273938212, -128469.15465225634, -103230.12360693498, -187500.02235174447, 0.048, 0.978, -0.158, 192.0, 0.0, 0.0, 0.0, 0.0, 0.0, 0.0, 0.0, 0.0, 0.0, 1.718468032481642E9, 0.0, 2024-06-15 11:13:52.481
96.0, 78157.21072640548, 66331.9532670919, 73955.64156241913, -187500.02235174447, 109480.52072292814, -128186.22627094106, -103023.45937770122, -187500.02235174447, 0.06, 0.978, -0.156, 192.0, 1.0, 224.0, 30.0, 144.0, 251.0, 32.0, 0.0, 0.0, 0.0, 1.718468032481652E9, 0.0, 2024-06-15 11:13:52.481
97.0, 78081.19244351298, 66610.59011347177, 75254.6131914393, -187500.02235174447, 111638.55929834358, -127101.98785090302, -101851.24449148709, -187500.02235174447, 0.06, 0.978, -0.156, 192.0, 0.0, 0.0, 0.0, 0.0, 0.0, 0.0, 0.0, 0.0, 0.0, 1.7184680324816635E9, 0.0, 2024-06-15 11:13:52.481
98.0, 78051.64343734305, 66135.19086065184, 74730.55419094017, -187500.02235174447, 111727.0722063866, -127152.011054994, -101812.97830497961, -187500.02235174447, 0.06, 0.978, -0.156, 192.0, 0.0, 0.0, 0.0, 0.0, 0.0, 0.0, 0.0, 0.0, 0.0, 1.7184680324816735E9, 0.0, 2024-06-15 11:13:52.481
99.0, 78136.8482872067, 65704.58450372035, 73250.46637659865, -187500.02235174447, 109498.78209814812, -128274.02392316151, -103003.85689781391, -187500.02235174447, 0.06, 0.978, -0.156, 192.0, 0.0, 0.0, 0.0, 0.0, 0.0, 0.0, 0.0, 0.0, 0.0, 1.7184680324816825E9, 0.0, 2024-06-15 11:13:52.481
100.0, 78185.61979360817, 66225.06722510663, 73675.10481776057, -187500.02235174447, 109177.49812334754, -128345.43774669622, -103170.77972540614, -187500.02235174447, 0.06, 0.978, -0.156, 192.0, 0.0, 0.0, 0.0, 0.0, 0.0, 0.0, 0.0, 0.0, 0.0, 1.7184680324816923E9, 0.0, 2024-06-15 11:13:52.481
101.0, 78114.87652240712, 66652.54433781438, 75141.78158542891, -187500.02235174447, 111326.88657365878, -127249.62112303033, -102007.30437127405, -187500.02235174447, 0.06, 0.978, -0.156, 192.0, 0.0, 0.0, 0.0, 0.0, 0.0, 0.0, 0.0, 0.0, 0.0, 1.7184680324817016E9, 0.0, 2024-06-15 11:13:52.481
102.0, 78071.98352479738, 66273.57051057465, 74959.12312974014, -187500.02235174447, 111911.49644988733, -127056.65851314766, -101706.09226299432, -187500.02235174447, 0.06, 0.978, -0.156, 192.0, 0.0, 0.0, 0.0, 0.0, 0.0, 0.0, 0.0, 0.0, 0.0, 1.7184680324817111E9, 0.0, 2024-06-15 11:13:52.481
103.0, 78149.05233967929, 65753.2218996551, 73443.11606205894, -187500.02235174447, 109844.34006742717, -128137.72298547304, -102833.71541902011, -187500.02235174447, 0.06, 0.978, -0.156, 192.0, 0.0, 0.0, 0.0, 0.0, 0.0, 0.0, 0.0, 0.0, 0.0, 1.7184680324817207E9, 0.0, 2024-06-15 11:13:52.481
104.0, 78222.47782021498, 66130.6534565274, 73447.04996908308, -187500.02235174447, 108935.54048961884, -128521.32362381503, -103331.33230582862, -187500.02235174447, 0.06, 0.978, -0.156, 192.0, 0.0, 0.0, 0.0, 0.0, 0.0, 0.0, 0.0, 0.0, 0.0, 1.7184680324817307E9, 0.0, 2024-06-15 11:13:52.481
105.0, 78153.41092984808, 66663.96607923103, 74981.36311547317, -187500.02235174447, 110954.26064184436, -127461.67212267783, -102233.88400481749, -187500.02235174447, 0.06, 0.978, -0.156, 192.0, 0.0, 0.0, 0.0, 0.0, 0.0, 0.0, 0.0, 0.0, 0.0, 1.71846803248174E9, 0.0, 2024-06-15 11:13:52.481
106.0, 78089.59669942818, 66385.95508169592, 75148.86708842125, -187500.02235174447, 112038.65552409358, -126985.04352391286, -101640.51224476246, -187500.02235174447, 0.054, 0.978, -0.154, 192.0, 1.0, 176.0, 30.0, 144.0, 251.0, 48.0, 0.0, 0.0, 0.0, 1.7184680324817493E9, 0.0, 2024-06-15 11:13:52.481
107.0, 78160.83170900724, 65811.47054570563, 73691.71216389086, -187500.02235174447, 110275.03583133648, -127927.61658759316, -102601.05611098482, -187500.02235174447, 0.054, 0.978, -0.154, 192.0, 0.0, 0.0, 0.0, 0.0, 0.0, 0.0, 0.0, 0.0, 0.0, 1.7184680324817588E9, 0.0, 2024-06-15 11:13:52.481
108.0, 78248.91993390559, 66017.57598132802, 73270.60529835288, -187500.02235174447, 108830.04025578979, -128596.8501683295, -103390.94440829092, -187500.02235174447, 0.054, 0.978, -0.154, 192.0, 0.0, 0.0, 0.0, 0.0, 0.0, 0.0, 0.0, 0.0, 0.0, 1.7184680324817684E9, 0.0, 2024-06-15 11:13:52.481
109.0, 78200.43900018204, 66640.72026499752, 74761.66781922196, -187500.02235174447, 110548.10709334697, -127655.61820931653, -102441.28584161829, -187500.02235174447, 0.054, 0.978, -0.154, 192.0, 0.0, 0.0, 0.0, 0.0, 0.0, 0.0, 0.0, 0.0, 0.0, 1.718468032481778E9, 0.0, 2024-06-15 11:13:52.481
110.0, 78140.78219423082, 66508.17442037755, 75275.55677599391, -187500.02235174447, 112024.23864891991, -126991.59258503826, -101658.86302696026, -187500.02235174447, 0.054, 0.978, -0.154, 192.0, 0.0, 0.0, 0.0, 0.0, 0.0, 0.0, 0.0, 0.0, 0.0, 1.7184680324817877E9, 0.0, 2024-06-15 11:13:52.481
111.0, 78177.55081385981, 65912.03104401006, 73980.42964702006, -187500.02235174447, 110675.6237954645, -127757.00572216579, -102409.79223368075, -187500.02235174447, 0.054, 0.978, -0.154, 192.0, 0.0, 0.0, 0.0, 0.0, 0.0, 0.0, 0.0, 0.0, 0.0, 1.7184680324817967E9, 0.0, 2024-06-15 11:13:52.481
112.0, 78275.31734410732, 65928.07959652896, 73176.99619257405, -187500.02235174447, 108822.15008999707, -128635.58574147055, -103405.22717299785, -187500.02235174447, 0.054, 0.978, -0.154, 192.0, 0.0, 0.0, 0.0, 0.0, 0.0, 0.0, 0.0, 0.0, 0.0, 1.7184680324818065E9, 0.0, 2024-06-15 11:13:52.481
113.0, 78261.14633812265, 66610.7242239385, 74520.51484829365, -187500.02235174447, 110115.55613464786, -127897.82171223423, -102691.42421381763, -187500.02235174447, 0.054, 0.978, -0.154, 192.0, 0.0, 0.0, 0.0, 0.0, 0.0, 0.0, 0.0, 0.0, 0.0, 1.7184680324818156E9, 0.0, 2024-06-15 11:13:52.481
114.0, 78174.75684580288, 66613.98757862898, 75361.70039912467, -187500.02235174447, 111943.30298224725, -127031.15517272416, -101711.47903340806, -187500.02235174447, 0.054, 0.978, -0.154, 192.0, 0.0, 0.0, 0.0, 0.0, 0.0, 0.0, 0.0, 0.0, 0.0, 1.718468032481825E9, 0.0, 2024-06-15 11:13:52.481
115.0, 78186.58091861974, 66035.65854259235, 74297.42208688523, -187500.02235174447, 111107.28068438539, -127515.74099251522, -102152.03191662216, -187500.02235174447, 0.054, 0.978, -0.154, 192.0, 0.0, 0.0, 0.0, 0.0, 0.0, 0.0, 0.0, 0.0, 0.0, 1.7184680324818344E9, 0.0, 2024-06-15 11:13:52.481
116.0, 78308.97907125701, 65882.5490930735, 73151.64931436174, -187500.02235174447, 108951.61139388221, -128584.17672922334, -103327.46545403784, -187500.02235174447, 0.046, 0.974, -0.15, 192.0, 1.0, 112.0, 30.0, 112.0, 251.0, 80.0, 0.0, 0.0, 0.0, 1.718468032481844E9, 0.0, 2024-06-15 11:13:52.481
117.0, 78302.80998978735, 66539.82449052627, 74243.1744030922, -187500.02235174447, 109730.65909512748, -128089.84554884977, -102886.62199814583, -187500.02235174447, 0.046, 0.974, -0.15, 192.0, 0.0, 0.0, 0.0, 0.0, 0.0, 0.0, 0.0, 0.0, 0.0, 1.7184680324818532E9, 0.0, 2024-06-15 11:13:52.481
118.0, 78225.87528537218, 66704.13216401722, 75367.86948059434, -187500.02235174447, 111791.7805065847, -127085.06758035035, -101777.7743074625, -187500.02235174447, 0.046, 0.974, -0.15, 192.0, 0.0, 0.0, 0.0, 0.0, 0.0, 0.0, 0.0, 0.0, 0.0, 1.7184680324818628E9, 0.0, 2024-06-15 11:13:52.481
119.0, 78222.0084335814, 66184.02942228668, 74600.48938995473, -187500.02235174447, 111480.84538946694, -127324.2983012555, -101944.65243156582, -187500.02235174447, 0.046, 0.974, -0.15, 192.0, 0.0, 0.0, 0.0, 0.0, 0.0, 0.0, 0.0, 0.0, 0.0, 1.7184680324818761E9, 0.0, 2024-06-15 11:13:52.481
120.0, 78340.80795536136, 65867.7522382441, 73228.36050133235, -187500.02235174447, 109224.63795240379, -128447.02642524558, -103159.87207411196, -187500.02235174447, 0.046, 0.974, -0.15, 192.0, 0.0, 0.0, 0.0, 0.0, 0.0, 0.0, 0.0, 0.0, 0.0, 1.718468032481886E9, 0.0, 2024-06-15 11:13:52.481
121.0, 78386.02553439446, 66472.81396064925, 73963.24115553393, -187500.02235174447, 109380.1166868349, -128283.00932443254, -103074.93544518179, -187500.02235174447, 0.046, 0.974, -0.15, 192.0, 0.0, 0.0, 0.0, 0.0, 0.0, 0.0, 0.0, 0.0, 0.0, 1.7184680324818952E9, 0.0, 2024-06-15 11:13:52.481
122.0, 78311.52717012491, 66795.14846743924, 75322.1825149277, -187500.02235174447, 111548.50411993315, -127210.05853534443, -101913.6058585174, -187500.02235174447, 0.046, 0.974, -0.15, 192.0, 0.0, 0.0, 0.0, 0.0, 0.0, 0.0, 0.0, 0.0, 0.0, 1.7184680324819047E9, 0.0, 2024-06-15 11:13:52.481
123.0, 78280.19002439857, 66343.59852595312, 74872.44306474246, -187500.02235174447, 111758.6775730464, -127202.23542478507, -101811.54779333447, -187500.02235174447, 0.046, 0.974, -0.15, 192.0, 0.0, 0.0, 0.0, 0.0, 0.0, 0.0, 0.0, 0.0, 0.0, 1.7184680324819143E9, 0.0, 2024-06-15 11:13:52.481
124.0, 78368.63587720822, 65896.54128510253, 73376.84313974895, -187500.02235174447, 109560.04822970013, -128318.59330160539, -102997.97838902216, -187500.02235174447, 0.046, 0.974, -0.15, 192.0, 0.0, 0.0, 0.0, 0.0, 0.0, 0.0, 0.0, 0.0, 0.0, 1.7184680324819238E9, 0.0, 2024-06-15 11:13:52.481
125.0, 78417.42973535416, 66375.9191484355, 73699.22235002785, -187500.02235174447, 109101.65865441068, -128455.78830907206, -103234.59395582604, -187500.02235174447, 0.046, 0.974, -0.15, 192.0, 0.0, 0.0, 0.0, 0.0, 0.0, 0.0, 0.0, 0.0, 0.0, 1.7184680324819338E9, 0.0, 2024-06-15 11:13:52.481
126.0, 78352.90024911168, 66834.75575861403, 75190.46368485257, -187500.02235174447, 111241.21233716159, -127363.50326103011, -102077.3994418859, -187500.02235174447, 0.046, 0.972, -0.152, 192.0, 1.0, 112.0, 30.0, 96.0, 251.0, 64.0, 0.0, 0.0, 0.0, 1.718468032481944E9, 0.0, 2024-06-15 11:13:52.481
127.0, 78314.03056550391, 66480.07827759723, 75088.18210222508, -187500.02235174447, 111958.41276149903, -127103.03838289242, -101706.53929788343, -187500.02235174447, 0.046, 0.972, -0.152, 192.0, 0.0, 0.0, 0.0, 0.0, 0.0, 0.0, 0.0, 0.0, 0.0, 1.7184680324819531E9, 0.0, 2024-06-15 11:13:52.481
128.0, 78387.92543267316, 65939.30017224552, 73582.47918873778, -187500.02235174447, 109970.38155441065, -128126.27889231192, -102772.65045316821, -187500.02235174447, 0.046, 0.972, -0.152, 192.0, 0.0, 0.0, 0.0, 0.0, 0.0, 0.0, 0.0, 0.0, 0.0, 1.7184680324819627E9, 0.0, 2024-06-15 11:13:52.481
129.0, 78471.1186255358, 66274.21871116385, 73482.90216718939, -187500.02235174447, 108929.12553896017, -128563.03197896863, -103325.05146563667, -187500.02235174447, 0.046, 0.972, -0.152, 192.0, 0.0, 0.0, 0.0, 0.0, 0.0, 0.0, 0.0, 0.0, 0.0, 1.7184680324819717E9, 0.0, 2024-06-15 11:13:52.481
130.0, 78418.6590812992, 66846.87040410882, 75016.8576856682, -187500.02235174447, 110888.65827186803, -127534.53880960213, -102260.50493246377, -187500.02235174447, 0.046, 0.972, -0.152, 192.0, 0.0, 0.0, 0.0, 0.0, 0.0, 0.0, 0.0, 0.0, 0.0, 1.7184680324819813E9, 0.0, 2024-06-15 11:13:52.481
131.0, 78364.61256320626, 66623.68823572257, 75268.5606799794, -187500.02235174447, 112058.66033538108, -127051.11528052275, -101656.62785251474, -187500.02235174447, 0.046, 0.972, -0.152, 192.0, 0.0, 0.0, 0.0, 0.0, 0.0, 0.0, 0.0, 0.0, 0.0, 1.7184680324819908E9, 0.0, 2024-06-15 11:13:52.481
132.0, 78410.83597073985, 66042.05114150657, 73857.60681123815, -187500.02235174447, 110421.4174057743, -127908.57290131724, -102522.53443271334, -187500.02235174447, 0.046, 0.972, -0.152, 192.0, 0.0, 0.0, 0.0, 0.0, 0.0, 0.0, 0.0, 0.0, 0.0, 1.7184680324820004E9, 0.0, 2024-06-15 11:13:52.482
133.0, 78507.70843120915, 66201.15085853945, 73324.58476121245, -187500.02235174447, 108864.37253527314, -128628.18731405585, -103361.90949224347, -187500.02235174447, 0.046, 0.972, -0.152, 192.0, 0.0, 0.0, 0.0, 0.0, 0.0, 0.0, 0.0, 0.0, 0.0, 1.71846803248201E9, 0.0, 2024-06-15 11:13:52.482
134.0, 78463.3178667209, 66845.66340990823, 74801.52097958577, -187500.02235174447, 110506.66695912683, -127727.41201250697, -102456.14975168106, -187500.02235174447, 0.046, 0.972, -0.152, 192.0, 0.0, 0.0, 0.0, 0.0, 0.0, 0.0, 0.0, 0.0, 0.0, 1.7184680324820192E9, 0.0, 2024-06-15 11:13:52.482
135.0, 78388.48422628453, 66740.49845224601, 75391.20470180568, -187500.02235174447, 112087.04705083932, -126998.61103279723, -101604.6823984006, -187500.02235174447, 0.046, 0.972, -0.152, 192.0, 0.0, 0.0, 0.0, 0.0, 0.0, 0.0, 0.0, 0.0, 0.0, 1.7184680324820287E9, 0.0, 2024-06-15 11:13:52.482
136.0, 78412.19942715162, 66146.52319509067, 74152.04634094791, -187500.02235174447, 110876.14129497306, -127659.95444774085, -102246.31157473465, -187500.02235174447, 0.046, 0.972, -0.152, 192.0, 0.0, 0.0, 0.0, 0.0, 0.0, 0.0, 0.0, 0.0, 0.0, 1.7184680324820385E9, 0.0, 2024-06-15 11:13:52.482
137.0, 78523.39935581677, 66116.66126449838, 73246.0854346854, -187500.02235174447, 108929.01378023789, -128582.56740362257, -103286.87468610701, -187500.02235174447, 0.054, 0.97, -0.154, 192.0, 1.0, 176.0, 30.0, 80.0, 251.0, 48.0, 0.0, 0.0, 0.0, 1.7184680324820476E9, 0.0, 2024-06-15 11:13:52.482
138.0, 78510.30123356596, 66794.5673220834, 74534.26117113366, -187500.02235174447, 110101.69805308558, -127915.27842465382, -102646.6760214181, -187500.02235174447, 0.054, 0.97, -0.154, 192.0, 0.0, 0.0, 0.0, 0.0, 0.0, 0.0, 0.0, 0.0, 0.0, 1.718468032482057E9, 0.0, 2024-06-15 11:13:52.482
139.0, 78434.7076338181, 66836.09686328136, 75443.88776348684, -187500.02235174447, 111988.09587813567, -127028.69648083407, -101643.57443375283, -187500.02235174447, 0.054, 0.97, -0.154, 192.0, 0.0, 0.0, 0.0, 0.0, 0.0, 0.0, 0.0, 0.0, 0.0, 1.7184680324820669E9, 0.0, 2024-06-15 11:13:52.482
140.0, 78439.55796236491, 66277.97380423234, 74454.35368470594, -187500.02235174447, 111263.11704672778, -127480.71580895376, -102045.1905781258, -187500.02235174447, 0.054, 0.97, -0.154, 192.0, 0.0, 0.0, 0.0, 0.0, 0.0, 0.0, 0.0, 0.0, 0.0, 1.7184680324820783E9, 0.0, 2024-06-15 11:13:52.482
141.0, 78544.56645781595, 66075.51170295617, 73248.67823704222, -187500.02235174447, 109067.99692726099, -128558.13694693291, -103230.12360693498, -187500.02235174447, 0.054, 0.97, -0.154, 192.0, 0.0, 0.0, 0.0, 0.0, 0.0, 0.0, 0.0, 0.0, 0.0, 1.7184680324820879E9, 0.0, 2024-06-15 11:13:52.482
142.0, 78551.02611196353, 66717.83378336833, 74261.94986843466, -187500.02235174447, 109696.72914704433, -128150.30701760139, -102883.58216089991, -187500.02235174447, 0.054, 0.97, -0.154, 192.0, 0.0, 0.0, 0.0, 0.0, 0.0, 0.0, 0.0, 0.0, 0.0, 1.7184680324820974E9, 0.0, 2024-06-15 11:13:52.482
143.0, 78467.09531153385, 66906.97424494913, 75445.58649606544, -187500.02235174447, 111807.20321025887, -127117.2987958549, -101746.57127220288, -187500.02235174447, 0.054, 0.97, -0.154, 192.0, 0.0, 0.0, 0.0, 0.0, 0.0, 0.0, 0.0, 0.0, 0.0, 1.7184680324821072E9, 0.0, 2024-06-15 11:13:52.482
144.0, 78444.25182870052, 66400.30490163623, 74746.75920567027, -187500.02235174447, 111614.53117305413, -127303.64528937881, -101856.22893050063, -187500.02235174447, 0.054, 0.97, -0.154, 192.0, 0.0, 0.0, 0.0, 0.0, 0.0, 0.0, 0.0, 0.0, 0.0, 1.7184680324821165E9, 0.0, 2024-06-15 11:13:52.482
145.0, 78534.0387861775, 66039.25717344966, 73326.93169438026, -187500.02235174447, 109352.64639289933, -128420.13727666585, -103063.13372410939, -187500.02235174447, 0.054, 0.97, -0.154, 192.0, 0.0, 0.0, 0.0, 0.0, 0.0, 0.0, 0.0, 0.0, 0.0, 1.7184680324821255E9, 0.0, 2024-06-15 11:13:52.482
146.0, 78575.23305120863, 66612.2664943059, 73960.17896654355, -187500.02235174447, 109354.23336675565, -128346.48827868562, -103076.05303240455, -187500.02235174447, 0.054, 0.97, -0.154, 192.0, 0.0, 0.0, 0.0, 0.0, 0.0, 0.0, 0.0, 0.0, 0.0, 1.7184680324821353E9, 0.0, 2024-06-15 11:13:52.482
147.0, 78484.64143093127, 66954.56110889449, 75358.14647175628, -187500.02235174447, 111543.00559079714, -127251.31985560893, -101897.17732634275, -187500.02235174447, 0.048, 0.978, -0.15, 192.0, 1.0, 128.0, 30.0, 144.0, 251.0, 80.0, 0.0, 0.0, 0.0, 1.7184680324821444E9, 0.0, 2024-06-15 11:13:52.482
148.0, 78439.9602937651, 66521.16078390607, 74989.78972313282, -187500.02235174447, 111881.41100185049, -127166.36087493431, -101715.94938229912, -187500.02235174447, 0.048, 0.978, -0.15, 192.0, 0.0, 0.0, 0.0, 0.0, 0.0, 0.0, 0.0, 0.0, 0.0, 1.7184680324821541E9, 0.0, 2024-06-15 11:13:52.482
149.0, 78522.77350697202, 66040.4418159058, 73470.49694901668, -187500.02235174447, 109708.37440590555, -128253.48267000708, -102868.5841403704, -187500.02235174447, 0.048, 0.978, -0.15, 192.0, 0.0, 0.0, 0.0, 0.0, 0.0, 0.0, 0.0, 0.0, 0.0, 1.718468032482164E9, 0.0, 2024-06-15 11:13:52.482
150.0, 78592.89092932832, 66485.91208290006, 73684.15727426497, -187500.02235174447, 109080.33509020033, -128499.35185901546, -103219.59593529653, -187500.02235174447, 0.048, 0.978, -0.15, 192.0, 0.0, 0.0, 0.0, 0.0, 0.0, 0.0, 0.0, 0.0, 0.0, 1.7184680324821732E9, 0.0, 2024-06-15 11:13:52.482
151.0, 78512.84933243386, 66962.07129503146, 75204.7464495595, -187500.02235174447, 111200.33099655283, -127422.31070069203, -102080.77455529865, -187500.02235174447, 0.048, 0.978, -0.15, 192.0, 0.0, 0.0, 0.0, 0.0, 0.0, 0.0, 0.0, 0.0, 0.0, 1.718468032482184E9, 0.0, 2024-06-15 11:13:52.482
152.0, 78444.5647531229, 66624.53760201187, 75184.40636210518, -187500.02235174447, 112047.97620153145, -127070.38248424322, -101616.86409912874, -187500.02235174447, 0.048, 0.978, -0.15, 192.0, 0.0, 0.0, 0.0, 0.0, 0.0, 0.0, 0.0, 0.0, 0.0, 1.718468032482194E9, 0.0, 2024-06-15 11:13:52.482
153.0, 78513.36342255634, 66076.76340064566, 73672.0873322591, -187500.02235174447, 110112.24807646849, -128079.2284702335, -102664.84798966027, -187500.02235174447, 0.048, 0.978, -0.15, 192.0, 0.0, 0.0, 0.0, 0.0, 0.0, 0.0, 0.0, 0.0, 0.0, 1.7184680324822047E9, 0.0, 2024-06-15 11:13:52.482
154.0, 78584.5984321354, 66355.46730225888, 73462.85265241297, -187500.02235174447, 108931.20425119452, -128597.61012764099, -103300.15162231347, -187500.02235174447, 0.048, 0.978, -0.15, 192.0, 0.0, 0.0, 0.0, 0.0, 0.0, 0.0, 0.0, 0.0, 0.0, 1.7184680324822173E9, 0.0, 2024-06-15 11:13:52.482
0.0, 0.0, 0.0, 0.0, 0.0, 0.0, 0.0, 0.0, 0.0, 0.048, 0.978, -0.15, 192.0, 0.0, 0.0, 0.0, 0.0, 0.0, 0.0, 0.0, 0.0, 0.0, 1.7184680325548403E9, 0.0, 2024-06-15 11:13:52.554
1.0, 79207.78741929382, 73090.11496187627, 72076.37394385028, -187500.02235174447, 108344.71682843172, -169221.12336410565, -130235.47890609252, -187500.02235174447, 0.026000000000000002, 0.98, -0.126, 192.0, 0.0, 208.0, 30.0, 160.0, 252.0, 16.0, 0.0, 0.0, 0.0, 1.7184680330335836E9, 0.0, 2024-06-15 11:13:53.033
2.0, 79061.71876927839, 74735.9409613539, 74033.69385405706, -187500.02235174447, 110617.33044592506, -167538.86402116585, -128712.11811448552, -187500.02235174447, 0.026000000000000002, 0.98, -0.126, 192.0, 0.0, 0.0, 0.0, 0.0, 0.0, 0.0, 0.0, 0.0, 0.0, 1.7184680330337462E9, 0.0, 2024-06-15 11:13:53.033
3.0, 78992.58482367812, 74570.87332855146, 74616.85086689603, -187500.02235174447, 112239.46359628005, -166738.73862489924, -127792.90262376102, -187500.02235174447, 0.026000000000000002, 0.98, -0.126, 192.0, 0.0, 0.0, 0.0, 0.0, 0.0, 0.0, 0.0, 0.0, 0.0, 1.7184680330337589E9, 0.0, 2024-06-15 11:13:53.033
4.0, 79122.96254908593, 72993.10839094024, 72871.09021795871, -187500.02235174447, 110366.23094871413, -168184.18123533504, -129076.94328748505, -187500.02235174447, 0.026000000000000002, 0.98, -0.126, 192.0, 0.0, 0.0, 0.0, 0.0, 0.0, 0.0, 0.0, 0.0, 0.0, 1.7184680330337691E9, 0.0, 2024-06-15 11:13:53.033
5.0, 79220.97494852245, 72836.15444137508, 71912.69211920406, -187500.02235174447, 108292.27963593956, -169369.80716822235, -130343.23666611155, -187500.02235174447, 0.026000000000000002, 0.98, -0.126, 192.0, 0.0, 0.0, 0.0, 0.0, 0.0, 0.0, 0.0, 0.0, 0.0, 1.7184680330337784E9, 0.0, 2024-06-15 11:13:53.033
6.0, 79084.49519687834, 74544.92295323884, 73712.61104495657, -187500.02235174447, 110140.992419838, -167859.23157444378, -129024.64020545963, -187500.02235174447, 0.026000000000000002, 0.98, -0.126, 192.0, 0.0, 0.0, 0.0, 0.0, 0.0, 0.0, 0.0, 0.0, 0.0, 1.7184680330338037E9, 0.0, 2024-06-15 11:13:53.033
7.0, 78988.47210269835, 74731.06828106265, 74701.09459174807, -187500.02235174447, 112203.20906677355, -166715.4034036879, -127801.84332154314, -187500.02235174447, 0.026000000000000002, 0.98, -0.126, 192.0, 0.0, 0.0, 0.0, 0.0, 0.0, 0.0, 0.0, 0.0, 0.0, 1.7184680330338132E9, 0.0, 2024-06-15 11:13:53.033
8.0, 79091.33483068166, 73262.96100174917, 73236.34007410289, -187500.02235174447, 110873.66025133852, -167853.77774879668, -128765.98581862281, -187500.02235174447, 0.016, 0.982, -0.11800000000000001, 192.0, 0.0, 128.0, 30.0, 176.0, 252.0, 80.0, 0.0, 0.0, 0.0, 1.7184680330338223E9, 0.0, 2024-06-15 11:13:53.033
9.0, 79223.25482645689, 72651.21610775187, 71850.88954578515, -187500.02235174447, 108387.1851428968, -169394.14821793418, -130333.08897412884, -187500.02235174447, 0.016, 0.982, -0.11800000000000001, 192.0, 0.0, 0.0, 0.0, 0.0, 0.0, 0.0, 0.0, 0.0, 0.0, 1.7184680330338311E9, 0.0, 2024-06-15 11:13:53.033
10.0, 79104.5223599103, 74292.72822054962, 73350.24456384714, -187500.02235174447, 109647.84588192057, -168217.0606514288, -129368.58884913789, -187500.02235174447, 0.016, 0.982, -0.11800000000000001, 192.0, 0.0, 0.0, 0.0, 0.0, 0.0, 0.0, 0.0, 0.0, 0.0, 1.71846803303384E9, 0.0, 2024-06-15 11:13:53.033
11.0, 78989.85791085457, 74846.78326210777, 74720.07122279063, -187500.02235174447, 112057.65450688059, -166776.89305268443, -127895.25126162187, -187500.02235174447, 0.016, 0.982, -0.11800000000000001, 192.0, 0.0, 0.0, 0.0, 0.0, 0.0, 0.0, 0.0, 0.0, 0.0, 1.7184680330338488E9, 0.0, 2024-06-15 11:13:53.033
12.0, 79062.05404544521, 73559.68040939336, 73606.32850007158, -187500.02235174447, 111343.78449246699, -167532.35966352938, -128469.48992842317, -187500.02235174447, 0.016, 0.982, -0.11800000000000001, 192.0, 0.0, 0.0, 0.0, 0.0, 0.0, 0.0, 0.0, 0.0, 0.0, 1.7184680330338576E9, 0.0, 2024-06-15 11:13:53.033
13.0, 79213.26359668537, 72555.46123450533, 71884.52892119037, -187500.02235174447, 108613.02716887322, -169323.09202231074, -130235.88123749272, -187500.02235174447, 0.016, 0.982, -0.11800000000000001, 192.0, 0.0, 0.0, 0.0, 0.0, 0.0, 0.0, 0.0, 0.0, 0.0, 1.7184680330338662E9, 0.0, 2024-06-15 11:13:53.033
14.0, 79120.41445021803, 74001.6191007637, 72973.1706348861, -187500.02235174447, 109183.08605946138, -168573.12394060183, -129699.618184521, -187500.02235174447, 0.016, 0.982, -0.11800000000000001, 192.0, 0.0, 0.0, 0.0, 0.0, 0.0, 0.0, 0.0, 0.0, 0.0, 1.7184680330338755E9, 0.0, 2024-06-15 11:13:53.033
15.0, 78979.12907351603, 74905.72481223641, 74645.39404456544, -187500.02235174447, 111801.50351542277, -166899.0006326438, -128043.77860352739, -187500.02235174447, 0.016, 0.982, -0.11800000000000001, 192.0, 0.0, 0.0, 0.0, 0.0, 0.0, 0.0, 0.0, 0.0, 0.0, 1.7184680330338843E9, 0.0, 2024-06-15 11:13:53.033
16.0, 79017.3952600235, 73846.52034598832, 73934.80973658679, -187500.02235174447, 111724.3229418186, -167240.93761932108, -128209.18151249667, -187500.02235174447, 0.016, 0.982, -0.11800000000000001, 192.0, 0.0, 0.0, 0.0, 0.0, 0.0, 0.0, 0.0, 0.0, 0.0, 1.718468033033893E9, 0.0, 2024-06-15 11:13:53.033
17.0, 79196.00804996587, 72534.00355982824, 72011.77740237444, -187500.02235174447, 108955.07591427278, -169119.7805547453, -130014.37544994062, -187500.02235174447, 0.016, 0.982, -0.11800000000000001, 192.0, 0.0, 0.0, 0.0, 0.0, 0.0, 0.0, 0.0, 0.0, 0.0, 1.7184680330339017E9, 0.0, 2024-06-15 11:13:53.033
18.0, 79170.90704094256, 73672.13203574801, 72591.35813610055, -187500.02235174447, 108760.32516483369, -168908.73538359828, -129998.12573172162, -187500.02235174447, 0.01, 0.982, -0.11800000000000001, 192.0, 0.0, 80.0, 30.0, 176.0, 252.0, 80.0, 0.0, 0.0, 0.0, 1.7184680330339105E9, 0.0, 2024-06-15 11:13:53.033
19.0, 79032.28152183075, 74913.86084721814, 74502.36523179593, -187500.02235174447, 111427.62588591885, -167134.16333605806, -128292.55351931496, -187500.02235174447, 0.01, 0.982, -0.11800000000000001, 192.0, 0.0, 0.0, 0.0, 0.0, 0.0, 0.0, 0.0, 0.0, 0.0, 1.7184680330339196E9, 0.0, 2024-06-15 11:13:53.033
20.0, 79017.70818444589, 74131.77330872694, 74244.64961822625, -187500.02235174447, 111999.15999164105, -167045.80689022623, -128037.18483891308, -187500.02235174447, 0.01, 0.982, -0.11800000000000001, 192.0, 0.0, 0.0, 0.0, 0.0, 0.0, 0.0, 0.0, 0.0, 0.0, 1.7184680330339284E9, 0.0, 2024-06-15 11:13:53.033
21.0, 79177.32199160123, 72635.52518314424, 72261.9604780627, -187500.02235174447, 109384.25175955913, -168897.8053805596, -129778.22926977031, -187500.02235174447, 0.01, 0.982, -0.11800000000000001, 192.0, 0.0, 0.0, 0.0, 0.0, 0.0, 0.0, 0.0, 0.0, 0.0, 1.7184680330339372E9, 0.0, 2024-06-15 11:13:53.033
22.0, 79174.48332005541, 73363.87912796487, 72300.60664422592, -187500.02235174447, 108478.40261201891, -169175.41404669452, -130220.14560939618, -187500.02235174447, 0.01, 0.982, -0.11800000000000001, 192.0, 0.0, 0.0, 0.0, 0.0, 0.0, 0.0, 0.0, 0.0, 0.0, 1.718468033033946E9, 0.0, 2024-06-15 11:13:53.033
23.0, 79030.51573401877, 74851.03009355428, 74284.21220591215, -187500.02235174447, 111025.80857584579, -167361.36881844627, -128526.30806282855, -187500.02235174447, 0.01, 0.982, -0.11800000000000001, 192.0, 0.0, 0.0, 0.0, 0.0, 0.0, 0.0, 0.0, 0.0, 0.0, 1.7184680330339549E9, 0.0, 2024-06-15 11:13:53.033
24.0, 78994.48472195682, 74385.62207050587, 74467.20593776774, -187500.02235174447, 112177.45985716104, -166885.61193771506, -127907.27650013883, -187500.02235174447, 0.01, 0.982, -0.11800000000000001, 192.0, 0.0, 0.0, 0.0, 0.0, 0.0, 0.0, 0.0, 0.0, 0.0, 1.7184680330339637E9, 0.0, 2024-06-15 11:13:53.033
25.0, 79140.77688941681, 72801.71040316945, 72554.90244089394, -187500.02235174447, 109892.70924242846, -168560.80812940697, -129439.55563778349, -187500.02235174447, 0.01, 0.982, -0.11800000000000001, 192.0, 0.0, 0.0, 0.0, 0.0, 0.0, 0.0, 0.0, 0.0, 0.0, 1.7184680330339725E9, 0.0, 2024-06-15 11:13:53.033
26.0, 79210.51433211737, 73065.68450518663, 72034.33031252984, -187500.02235174447, 108288.50219112661, -169391.22013941052, -130389.57183236741, -187500.02235174447, 0.01, 0.982, -0.11800000000000001, 192.0, 0.0, 0.0, 0.0, 0.0, 0.0, 0.0, 0.0, 0.0, 0.0, 1.718468033033981E9, 0.0, 2024-06-15 11:13:53.033
27.0, 79053.69449301893, 74727.78257462771, 73993.97480415998, -187500.02235174447, 110535.47835772972, -167699.52836031062, -128859.68433137947, -187500.02235174447, 0.01, 0.982, -0.11800000000000001, 192.0, 0.0, 0.0, 0.0, 0.0, 0.0, 0.0, 0.0, 0.0, 0.0, 1.7184680330339944E9, 0.0, 2024-06-15 11:13:53.033
28.0, 78985.9463555749, 74606.92669235787, 74623.24346581024, -187500.02235174447, 112221.38103501571, -166843.9259343059, -127890.89267145308, -187500.02235174447, 0.01, 0.982, -0.11800000000000001, 192.0, 0.0, 0.0, 0.0, 0.0, 0.0, 0.0, 0.0, 0.0, 0.0, 1.7184680330340033E9, 0.0, 2024-06-15 11:13:53.034
29.0, 79123.9236740975, 73037.61071415075, 72901.13096250665, -187500.02235174447, 110398.59627468542, -168273.1188265227, -129156.1355180902, -187500.02235174447, 0.006, 0.984, -0.114, 192.0, 0.0, 48.0, 30.0, 192.0, 252.0, 112.0, 0.0, 0.0, 0.0, 1.7184680330340118E9, 0.0, 2024-06-15 11:13:53.034
30.0, 79223.5006956459, 72818.36245278866, 71885.91472934661, -187500.02235174447, 108255.42160933276, -169529.33156839988, -130483.31504861297, -187500.02235174447, 0.006, 0.984, -0.114, 192.0, 0.0, 0.0, 0.0, 0.0, 0.0, 0.0, 0.0, 0.0, 0.0, 1.7184680330340207E9, 0.0, 2024-06-15 11:13:53.034
31.0, 79065.49621409133, 74528.31560710855, 73669.58393688011, -187500.02235174447, 110057.50865429743, -168031.00473058282, -129178.73313173451, -187500.02235174447, 0.006, 0.984, -0.114, 192.0, 0.0, 0.0, 0.0, 0.0, 0.0, 0.0, 0.0, 0.0, 0.0, 1.7184680330340292E9, 0.0, 2024-06-15 11:13:53.034
32.0, 78975.66455312545, 74763.00892388927, 74704.31324294963, -187500.02235174447, 112170.21789195752, -166840.75198659327, -127914.18318917551, -187500.02235174447, 0.006, 0.984, -0.114, 192.0, 0.0, 0.0, 0.0, 0.0, 0.0, 0.0, 0.0, 0.0, 0.0, 1.7184680330340383E9, 0.0, 2024-06-15 11:13:53.034
33.0, 79077.65556307502, 73317.67807217575, 73275.43327515523, -187500.02235174447, 110913.5804669357, -167928.25376132177, -128824.81561002918, -187500.02235174447, 0.006, 0.984, -0.114, 192.0, 0.0, 0.0, 0.0, 0.0, 0.0, 0.0, 0.0, 0.0, 0.0, 1.7184680330340471E9, 0.0, 2024-06-15 11:13:53.034
34.0, 79201.8418552687, 72642.05189252518, 71833.16461243208, -187500.02235174447, 108390.336738865, -169486.86325393477, -130402.44643717367, -187500.02235174447, 0.006, 0.984, -0.114, 192.0, 0.0, 0.0, 0.0, 0.0, 0.0, 0.0, 0.0, 0.0, 0.0, 1.718468033034056E9, 0.0, 2024-06-15 11:13:53.034
35.0, 79093.52530163829, 74267.76132199304, 73277.66844960075, -187500.02235174447, 109564.45152335781, -168358.3907316197, -129486.561356373, -187500.02235174447, 0.006, 0.984, -0.114, 192.0, 0.0, 0.0, 0.0, 0.0, 0.0, 0.0, 0.0, 0.0, 0.0, 1.7184680330340648E9, 0.0, 2024-06-15 11:13:53.034
36.0, 78987.2427567533, 74921.9298269665, 74687.34826890806, -187500.02235174447, 111992.16389562654, -166915.13859214052, -128018.02939391487, -187500.02235174447, 0.006, 0.984, -0.114, 192.0, 0.0, 0.0, 0.0, 0.0, 0.0, 0.0, 0.0, 0.0, 0.0, 1.7184680330340734E9, 0.0, 2024-06-15 11:13:53.034
37.0, 79041.44573705742, 73728.32432130865, 73639.25261965426, -187500.02235174447, 111375.23339691562, -167596.41976313828, -128519.40137379187, -187500.02235174447, 0.006, 0.984, -0.114, 192.0, 0.0, 0.0, 0.0, 0.0, 0.0, 0.0, 0.0, 0.0, 0.0, 1.718468033034082E9, 0.0, 2024-06-15 11:13:53.034
38.0, 79204.99345123691, 72716.61731202809, 71882.18198802257, -187500.02235174447, 108628.60633475857, -169399.0432499699, -130290.01716256347, -187500.02235174447, 0.006, 0.984, -0.114, 192.0, 0.0, 0.0, 0.0, 0.0, 0.0, 0.0, 0.0, 0.0, 0.0, 1.7184680330340908E9, 0.0, 2024-06-15 11:13:53.034
39.0, 79133.69138642447, 74141.00457918699, 72906.96476780949, -187500.02235174447, 109092.002700806, -168740.44909959426, -129839.51775306676, -187500.02235174447, 0.006, 0.978, -0.112, 192.0, 0.0, 48.0, 30.0, 144.0, 252.0, 128.0, 0.0, 0.0, 0.0, 1.7184680330340996E9, 0.0, 2024-06-15 11:13:53.034
40.0, 78989.00854456527, 75099.20151224155, 74626.59622747854, -187500.02235174447, 111731.40844481094, -167044.8234134702, -128166.33321837583, -187500.02235174447, 0.006, 0.978, -0.112, 192.0, 0.0, 0.0, 0.0, 0.0, 0.0, 0.0, 0.0, 0.0, 0.0, 1.7184680330341089E9, 0.0, 2024-06-15 11:13:53.034
41.0, 79012.32141403215, 74088.32151750583, 73980.5637574868, -187500.02235174447, 111756.44239860088, -167306.5399892974, -128251.6721787062, -187500.02235174447, 0.006, 0.978, -0.112, 192.0, 0.0, 0.0, 0.0, 0.0, 0.0, 0.0, 0.0, 0.0, 0.0, 1.7184680330341175E9, 0.0, 2024-06-15 11:13:53.034
42.0, 79183.40166609308, 72759.64442010455, 72035.78317591944, -187500.02235174447, 109001.72400495101, -169176.2410612394, -130044.57265669975, -187500.02235174447, 0.006, 0.978, -0.112, 192.0, 0.0, 0.0, 0.0, 0.0, 0.0, 0.0, 0.0, 0.0, 0.0, 1.7184680330341263E9, 0.0, 2024-06-15 11:13:53.034
43.0, 79147.03537786429, 73834.91979061601, 72548.91217337993, -187500.02235174447, 108712.917114844, -169038.46490841688, -130096.98749744744, -187500.02235174447, 0.006, 0.978, -0.112, 192.0, 0.0, 0.0, 0.0, 0.0, 0.0, 0.0, 0.0, 0.0, 0.0, 1.718468033034135E9, 0.0, 2024-06-15 11:13:53.034
44.0, 78988.7403236318, 75095.55817789533, 74466.04364705607, -187500.02235174447, 111373.35585038137, -167236.55667740785, -128370.02466559705, -187500.02235174447, 0.006, 0.978, -0.112, 192.0, 0.0, 0.0, 0.0, 0.0, 0.0, 0.0, 0.0, 0.0, 0.0, 1.718468033034144E9, 0.0, 2024-06-15 11:13:53.034
45.0, 78982.97357356234, 74365.23727956263, 74255.08788288687, -187500.02235174447, 112012.92866622552, -167109.30819622378, -128083.05061853536, -187500.02235174447, 0.006, 0.978, -0.112, 192.0, 0.0, 0.0, 0.0, 0.0, 0.0, 0.0, 0.0, 0.0, 0.0, 1.7184680330341527E9, 0.0, 2024-06-15 11:13:53.034
46.0, 79149.94110464348, 72857.947392219, 72277.91962360378, -187500.02235174447, 109447.17192020082, -168923.1299070275, -129785.24771752927, -187500.02235174447, 0.006, 0.978, -0.112, 192.0, 0.0, 0.0, 0.0, 0.0, 0.0, 0.0, 0.0, 0.0, 0.0, 1.7184680330341616E9, 0.0, 2024-06-15 11:13:53.034
47.0, 79173.79041597729, 73521.9059612639, 72245.3531319324, -187500.02235174447, 108433.72147485275, -169305.47884767997, -130323.88005541326, -187500.02235174447, 0.006, 0.978, -0.112, 192.0, 0.0, 0.0, 0.0, 0.0, 0.0, 0.0, 0.0, 0.0, 0.0, 1.7184680330341704E9, 0.0, 2024-06-15 11:13:53.034
48.0, 79031.11923111907, 75028.4582410405, 74240.44749026865, -187500.02235174447, 110943.35299055016, -167513.5841981869, -128657.62456150349, -187500.02235174447, 0.006, 0.978, -0.112, 192.0, 0.0, 0.0, 0.0, 0.0, 0.0, 0.0, 0.0, 0.0, 0.0, 1.7184680330341792E9, 0.0, 2024-06-15 11:13:53.034
49.0, 78990.5955184216, 74600.3105759991, 74484.21561529824, -187500.02235174447, 112172.29660419186, -166978.6175463936, -127986.40167551061, -187500.02235174447, 0.006, 0.982, -0.114, 192.0, 0.0, 48.0, 30.0, 176.0, 252.0, 112.0, 0.0, 0.0, 0.0, 1.7184680330341878E9, 0.0, 2024-06-15 11:13:53.034
50.0, 79132.05970907924, 73017.31533018535, 72592.3863163455, -187500.02235174447, 109955.0035542254, -168605.6904322732, -129471.33981839893, -187500.02235174447, 0.006, 0.982, -0.114, 192.0, 0.0, 0.0, 0.0, 0.0, 0.0, 0.0, 0.0, 0.0, 0.0, 1.7184680330341964E9, 0.0, 2024-06-15 11:13:53.034
51.0, 79210.26846292836, 73219.39745180577, 72002.16615225865, -187500.02235174447, 108279.94147300023, -169484.73983821154, -130463.42199604775, -187500.02235174447, 0.006, 0.982, -0.114, 192.0, 0.0, 0.0, 0.0, 0.0, 0.0, 0.0, 0.0, 0.0, 0.0, 1.7184680330342052E9, 0.0, 2024-06-15 11:13:53.034
52.0, 79061.71876927839, 74884.35654453714, 73946.16442277007, -187500.02235174447, 110481.96828150372, -167798.72540220327, -128941.67053004153, -187500.02235174447, 0.006, 0.982, -0.114, 192.0, 0.0, 0.0, 0.0, 0.0, 0.0, 0.0, 0.0, 0.0, 0.0, 1.718468033034214E9, 0.0, 2024-06-15 11:13:53.034
53.0, 78994.64118416801, 74806.37130813257, 74626.28330305616, -187500.02235174447, 112220.84459314878, -166900.92288266696, -127935.01501500787, -187500.02235174447, 0.006, 0.982, -0.114, 192.0, 0.0, 0.0, 0.0, 0.0, 0.0, 0.0, 0.0, 0.0, 0.0, 1.718468033034223E9, 0.0, 2024-06-15 11:13:53.034
54.0, 79121.1744095295, 73263.51979536055, 72949.29897180785, -187500.02235174447, 110477.16265644583, -168272.2247567445, -129145.49608772948, -187500.02235174447, 0.006, 0.982, -0.114, 192.0, 0.0, 0.0, 0.0, 0.0, 0.0, 0.0, 0.0, 0.0, 0.0, 1.7184680330342317E9, 0.0, 2024-06-15 11:13:53.034
55.0, 79232.32963470575, 72986.46992283702, 71869.64265938314, -187500.02235174447, 108274.17472293077, -169571.48695844258, -130509.93597625924, -187500.02235174447, 0.006, 0.982, -0.114, 192.0, 0.0, 0.0, 0.0, 0.0, 0.0, 0.0, 0.0, 0.0, 0.0, 1.7184680330342405E9, 0.0, 2024-06-15 11:13:53.034
56.0, 79094.77699932779, 74682.16266419443, 73616.09621239857, -187500.02235174447, 109984.41844992858, -168137.51079291236, -129272.31988576888, -187500.02235174447, 0.006, 0.982, -0.114, 192.0, 0.0, 0.0, 0.0, 0.0, 0.0, 0.0, 0.0, 0.0, 0.0, 1.7184680330342493E9, 0.0, 2024-06-15 11:13:53.034
57.0, 78996.4963789578, 74961.82769081923, 74709.90117906347, -187500.02235174447, 112155.33163015028, -166889.50114125028, -127957.5008699299, -187500.02235174447, 0.006, 0.982, -0.114, 192.0, 0.0, 0.0, 0.0, 0.0, 0.0, 0.0, 0.0, 0.0, 0.0, 1.718468033034258E9, 0.0, 2024-06-15 11:13:53.034
58.0, 79096.20751097292, 73551.32085696708, 73319.39915649881, -187500.02235174447, 110975.96418571046, -167937.06034863717, -128831.23056068785, -187500.02235174447, 0.006, 0.982, -0.114, 192.0, 0.0, 0.0, 0.0, 0.0, 0.0, 0.0, 0.0, 0.0, 0.0, 1.7184680330342667E9, 0.0, 2024-06-15 11:13:53.034
59.0, 79234.38599519563, 72836.19914486399, 71831.73410078694, -187500.02235174447, 108407.86050651796, -169551.75036808854, -130460.51626926856, -187500.02235174447, 0.004, 0.98, -0.106, 192.0, 0.0, 32.0, 30.0, 160.0, 252.0, 176.0, 0.0, 0.0, 0.0, 1.7184680330342753E9, 0.0, 2024-06-15 11:13:53.034
60.0, 79128.88576136659, 74428.09038497096, 73234.66369326874, -187500.02235174447, 109490.0425660661, -168489.2601954055, -129610.16650321086, -187500.02235174447, 0.004, 0.98, -0.106, 192.0, 0.0, 0.0, 0.0, 0.0, 0.0, 0.0, 0.0, 0.0, 0.0, 1.718468033034284E9, 0.0, 2024-06-15 11:13:53.034
61.0, 79016.76941117876, 75075.64277358566, 74699.21704521382, -187500.02235174447, 111968.26988080381, -166981.1209417726, -128082.93885981309, -187500.02235174447, 0.004, 0.98, -0.106, 192.0, 0.0, 0.0, 0.0, 0.0, 0.0, 0.0, 0.0, 0.0, 0.0, 1.718468033034293E9, 0.0, 2024-06-15 11:13:53.034
62.0, 79063.70807453491, 73847.52617448881, 73695.46725695935, -187500.02235174447, 111432.61032493238, -167609.1602574778, -128533.57237977654, -187500.02235174447, 0.004, 0.98, -0.106, 192.0, 0.0, 0.0, 0.0, 0.0, 0.0, 0.0, 0.0, 0.0, 0.0, 1.7184680330343015E9, 0.0, 2024-06-15 11:13:53.034
63.0, 79218.51625663237, 72757.27513519229, 71905.40545051164, -187500.02235174447, 108676.21555044837, -169425.08303226033, -130313.77706691946, -187500.02235174447, 0.004, 0.98, -0.106, 192.0, 0.0, 0.0, 0.0, 0.0, 0.0, 0.0, 0.0, 0.0, 0.0, 1.7184680330343103E9, 0.0, 2024-06-15 11:13:53.034
64.0, 79153.98677038989, 74124.77721271243, 72866.93279349004, -187500.02235174447, 109043.67822929363, -168826.0562808581, -129922.21920755139, -187500.02235174447, 0.004, 0.98, -0.106, 192.0, 0.0, 0.0, 0.0, 0.0, 0.0, 0.0, 0.0, 0.0, 0.0, 1.7184680330343192E9, 0.0, 2024-06-15 11:13:53.034
65.0, 79009.05805934168, 75116.43470721658, 74616.49323898474, -187500.02235174447, 111696.360909505, -167106.76009735587, -128234.59544594235, -187500.02235174447, 0.004, 0.98, -0.106, 192.0, 0.0, 0.0, 0.0, 0.0, 0.0, 0.0, 0.0, 0.0, 0.0, 1.718468033034328E9, 0.0, 2024-06-15 11:13:53.034
66.0, 79017.68583270143, 74128.15232612519, 74019.23227539448, -187500.02235174447, 111803.0457857902, -167317.38058535822, -128273.50983303903, -187500.02235174447, 0.004, 0.98, -0.106, 192.0, 0.0, 0.0, 0.0, 0.0, 0.0, 0.0, 0.0, 0.0, 0.0, 1.7184680330343368E9, 0.0, 2024-06-15 11:13:53.034
67.0, 79190.08483768521, 72766.68521960799, 72061.84530995433, -187500.02235174447, 109059.27974692342, -169194.12245680363, -130071.88648842413, -187500.02235174447, 0.004, 0.98, -0.106, 192.0, 0.0, 0.0, 0.0, 0.0, 0.0, 0.0, 0.0, 0.0, 0.0, 1.7184680330343456E9, 0.0, 2024-06-15 11:13:53.034
68.0, 79182.08291317022, 73799.7157930989, 72495.5585593651, -187500.02235174447, 108664.97262298735, -169127.6260170491, -130193.6811439611, -187500.02235174447, 0.004, 0.98, -0.106, 192.0, 0.0, 0.0, 0.0, 0.0, 0.0, 0.0, 0.0, 0.0, 0.0, 1.7184680330343544E9, 0.0, 2024-06-15 11:13:53.034
69.0, 79044.21735336988, 75109.14803852416, 74435.10883272992, -187500.02235174447, 111310.5250967175, -167341.43106239213, -128490.65703042234, -187500.02235174447, 0.004, 0.98, -0.106, 192.0, 0.0, 0.0, 0.0, 0.0, 0.0, 0.0, 0.0, 0.0, 0.0, 1.7184680330343635E9, 0.0, 2024-06-15 11:13:53.034
70.0, 79028.52642876226, 74409.04669869503, 74290.783618782, -187500.02235174447, 112037.80615780428, -167153.92227815656, -128144.20499136508, -187500.02235174447, 0.002, 0.98, -0.106, 192.0, 0.0, 16.0, 30.0, 160.0, 252.0, 176.0, 0.0, 0.0, 0.0, 1.7184680330343723E9, 0.0, 2024-06-15 11:13:53.034
71.0, 79186.86618648365, 72885.3059274323, 72318.59979851244, -187500.02235174447, 109509.93561863132, -168943.96173285984, -129816.16018011096, -187500.02235174447, 0.002, 0.98, -0.106, 192.0, 0.0, 0.0, 0.0, 0.0, 0.0, 0.0, 0.0, 0.0, 0.0, 1.7184680330343812E9, 0.0, 2024-06-15 11:13:53.034
72.0, 79200.47839885693, 73484.13151313443, 72208.7409745146, -187500.02235174447, 108418.76815781214, -169350.98699939097, -130375.11025370483, -187500.02235174447, 0.002, 0.98, -0.106, 192.0, 0.0, 0.0, 0.0, 0.0, 0.0, 0.0, 0.0, 0.0, 0.0, 1.71846803303439E9, 0.0, 2024-06-15 11:13:53.034
73.0, 79044.15029813652, 75015.87420891217, 74198.02387929248, -187500.02235174447, 110895.69907137145, -167556.36543707436, -128713.16864647492, -187500.02235174447, 0.002, 0.98, -0.106, 192.0, 0.0, 0.0, 0.0, 0.0, 0.0, 0.0, 0.0, 0.0, 0.0, 1.718468033034399E9, 0.0, 2024-06-15 11:13:53.034
74.0, 78995.51290220176, 74638.57676250658, 74504.15337135237, -187500.02235174447, 112201.1303545392, -166962.32312468567, -127987.69807668902, -187500.02235174447, 0.002, 0.98, -0.106, 192.0, 0.0, 0.0, 0.0, 0.0, 0.0, 0.0, 0.0, 0.0, 0.0, 1.7184680330344076E9, 0.0, 2024-06-15 11:13:53.034
75.0, 79146.32012204172, 73063.56108946337, 72628.68554934091, -187500.02235174447, 110030.59715397324, -168576.0967226144, -129456.63237054735, -187500.02235174447, 0.002, 0.98, -0.106, 192.0, 0.0, 0.0, 0.0, 0.0, 0.0, 0.0, 0.0, 0.0, 0.0, 1.718468033034417E9, 0.0, 2024-06-15 11:13:53.034
76.0, 79228.52983814834, 73204.8241144209, 71971.76777979944, -187500.02235174447, 108256.78506574454, -169555.34899894585, -130544.08944178694, -187500.02235174447, 0.002, 0.98, -0.106, 192.0, 0.0, 0.0, 0.0, 0.0, 0.0, 0.0, 0.0, 0.0, 0.0, 1.7184680330344255E9, 0.0, 2024-06-15 11:13:53.034
77.0, 79080.20366194293, 74881.27200380231, 73908.85936127417, -187500.02235174447, 110402.01609158708, -167897.67657490692, -129056.62555177517, -187500.02235174447, 0.002, 0.98, -0.106, 192.0, 0.0, 0.0, 0.0, 0.0, 0.0, 0.0, 0.0, 0.0, 0.0, 1.7184680330344343E9, 0.0, 2024-06-15 11:13:53.034
78.0, 79001.65963192697, 74844.59279115115, 74655.02764642569, -187500.02235174447, 112224.28676179491, -166921.93352245493, -127979.02559984036, -187500.02235174447, 0.002, 0.98, -0.106, 192.0, 0.0, 0.0, 0.0, 0.0, 0.0, 0.0, 0.0, 0.0, 0.0, 1.7184680330344431E9, 0.0, 2024-06-15 11:13:53.034
79.0, 79129.86923812261, 73313.9006273628, 73001.6244055777, -187500.02235174447, 110551.41515152635, -168256.3103146923, -129150.81580290984, -187500.02235174447, 0.002, 0.98, -0.106, 192.0, 0.0, 0.0, 0.0, 0.0, 0.0, 0.0, 0.0, 0.0, 0.0, 1.718468033034452E9, 0.0, 2024-06-15 11:13:53.034
80.0, 79240.19744875401, 72979.65264077815, 71860.32198194528, -187500.02235174447, 108289.4633161382, -169599.6278047118, -130553.67834015828, -187500.02235174447, 0.006, 0.98, -0.112, 192.0, 0.0, 48.0, 30.0, 160.0, 252.0, 128.0, 0.0, 0.0, 0.0, 1.7184680330344608E9, 0.0, 2024-06-15 11:13:53.034
81.0, 79113.01602280332, 74674.22779491279, 73556.864089592, -187500.02235174447, 109907.48374551341, -168230.00231146842, -129384.27977374553, -187500.02235174447, 0.006, 0.98, -0.112, 192.0, 0.0, 0.0, 0.0, 0.0, 0.0, 0.0, 0.0, 0.0, 0.0, 1.7184680330344696E9, 0.0, 2024-06-15 11:13:53.034
82.0, 78999.2456435258, 75000.87618838265, 74715.3326529661, -187500.02235174447, 112137.80786249733, -166930.1589644145, -128023.43851607306, -187500.02235174447, 0.006, 0.98, -0.112, 192.0, 0.0, 0.0, 0.0, 0.0, 0.0, 0.0, 0.0, 0.0, 0.0, 1.7184680330345004E9, 0.0, 2024-06-15 11:13:53.034
83.0, 79081.38830439905, 73596.2702150667, 73380.97821247319, -187500.02235174447, 111060.38672451816, -167888.3335457246, -128804.22965338585, -187500.02235174447, 0.006, 0.98, -0.112, 192.0, 0.0, 0.0, 0.0, 0.0, 0.0, 0.0, 0.0, 0.0, 0.0, 1.7184680330345404E9, 0.0, 2024-06-15 11:13:53.034
84.0, 79228.90981780409, 72820.53057200082, 71838.23845842344, -187500.02235174447, 108448.47362619324, -169544.46369939612, -130465.43365304872, -187500.02235174447, 0.006, 0.98, -0.112, 192.0, 0.0, 0.0, 0.0, 0.0, 0.0, 0.0, 0.0, 0.0, 0.0, 1.7184680330345786E9, 0.0, 2024-06-15 11:13:53.034
85.0, 79127.09762181016, 74393.7581054876, 73172.32467798289, -187500.02235174447, 109422.4285390888, -168556.80716714947, -129688.57642276007, -187500.02235174447, 0.006, 0.98, -0.112, 192.0, 0.0, 0.0, 0.0, 0.0, 0.0, 0.0, 0.0, 0.0, 0.0, 1.7184680330345962E9, 0.0, 2024-06-15 11:13:53.034
86.0, 79012.25435879879, 75093.14418949417, 74673.84781525706, -187500.02235174447, 111919.27485695778, -167026.83025918368, -128147.8483257113, -187500.02235174447, 0.006, 0.98, -0.112, 192.0, 0.0, 0.0, 0.0, 0.0, 0.0, 0.0, 0.0, 0.0, 0.0, 1.7184680330346065E9, 0.0, 2024-06-15 11:13:53.034
87.0, 79070.6147635716, 73896.7447157794, 73729.77718469825, -187500.02235174447, 111467.45669453821, -167619.64322562734, -128564.57424933604, -187500.02235174447, 0.006, 0.98, -0.112, 192.0, 0.0, 0.0, 0.0, 0.0, 0.0, 0.0, 0.0, 0.0, 0.0, 1.7184680330346162E9, 0.0, 2024-06-15 11:13:53.034
88.0, 79229.37920443765, 72767.176957986, 71919.5764564963, -187500.02235174447, 108722.10368181512, -169429.4416224291, -130330.31735781638, -187500.02235174447, 0.006, 0.98, -0.112, 192.0, 0.0, 0.0, 0.0, 0.0, 0.0, 0.0, 0.0, 0.0, 0.0, 1.7184680330346253E9, 0.0, 2024-06-15 11:13:53.034
89.0, 79183.692238771, 74104.95121538058, 72801.39747874707, -187500.02235174447, 108967.74935337894, -168928.53902918566, -130034.06733680575, -187500.02235174447, 0.006, 0.98, -0.112, 192.0, 0.0, 0.0, 0.0, 0.0, 0.0, 0.0, 0.0, 0.0, 0.0, 1.7184680330346346E9, 0.0, 2024-06-15 11:13:53.034
90.0, 79033.7567369648, 75142.72035869604, 74593.53799742914, -187500.02235174447, 111624.07536793654, -167196.50235134392, -128340.83328733842, -187500.02235174447, 0.006, 0.976, -0.11, 192.0, 0.0, 48.0, 30.0, 128.0, 252.0, 144.0, 0.0, 0.0, 0.0, 1.7184680330346437E9, 0.0, 2024-06-15 11:13:53.034
91.0, 79049.87234471708, 74193.77704784597, 74064.71807536103, -187500.02235174447, 111817.41795747494, -167356.60789687728, -128330.52913314452, -187500.02235174447, 0.006, 0.976, -0.11, 192.0, 0.0, 0.0, 0.0, 0.0, 0.0, 0.0, 0.0, 0.0, 0.0, 1.7184680330346527E9, 0.0, 2024-06-15 11:13:53.034
92.0, 79212.97302400744, 72796.83772287819, 72102.88311277427, -187500.02235174447, 109111.26990452647, -169207.51115173235, -130095.95931720249, -187500.02235174447, 0.006, 0.976, -0.11, 192.0, 0.0, 0.0, 0.0, 0.0, 0.0, 0.0, 0.0, 0.0, 0.0, 1.718468033034662E9, 0.0, 2024-06-15 11:13:53.034
93.0, 79197.86324475566, 73770.12208344007, 72450.81036696558, -187500.02235174447, 108609.31677929364, -169223.58205599574, -130291.24650850851, -187500.02235174447, 0.006, 0.976, -0.11, 192.0, 0.0, 0.0, 0.0, 0.0, 0.0, 0.0, 0.0, 0.0, 0.0, 1.7184680330346713E9, 0.0, 2024-06-15 11:13:53.034
94.0, 79053.09099591864, 75113.6854426486, 74406.23037889367, -187500.02235174447, 111241.79348251743, -167423.48431628756, -128579.90754603238, -187500.02235174447, 0.006, 0.976, -0.11, 192.0, 0.0, 0.0, 0.0, 0.0, 0.0, 0.0, 0.0, 0.0, 0.0, 1.7184680330346804E9, 0.0, 2024-06-15 11:13:53.034
95.0, 79039.63524575654, 74469.35170523546, 74327.35107271088, -187500.02235174447, 112052.96064054497, -167184.43240933807, -128187.008581997, -187500.02235174447, 0.006, 0.976, -0.11, 192.0, 0.0, 0.0, 0.0, 0.0, 0.0, 0.0, 0.0, 0.0, 0.0, 1.7184680330346897E9, 0.0, 2024-06-15 11:13:53.034
96.0, 79189.16841616255, 72933.29512277784, 72367.25954619165, -187500.02235174447, 109568.22896817076, -168963.96654414732, -129846.35738687008, -187500.02235174447, 0.006, 0.976, -0.11, 192.0, 0.0, 0.0, 0.0, 0.0, 0.0, 0.0, 0.0, 0.0, 0.0, 1.7184680330346987E9, 0.0, 2024-06-15 11:13:53.034
97.0, 79219.3432711772, 73467.1441873484, 72179.6390032338, -187500.02235174447, 108376.97039568072, -169464.7573786685, -130492.52396732855, -187500.02235174447, 0.006, 0.976, -0.11, 192.0, 0.0, 0.0, 0.0, 0.0, 0.0, 0.0, 0.0, 0.0, 0.0, 1.7184680330347075E9, 0.0, 2024-06-15 11:13:53.034
98.0, 79063.10457743461, 75017.57294149077, 74160.40589337419, -187500.02235174447, 110811.43299477495, -167691.77230498462, -128855.63866563306, -187500.02235174447, 0.006, 0.976, -0.11, 192.0, 0.0, 0.0, 0.0, 0.0, 0.0, 0.0, 0.0, 0.0, 0.0, 1.7184680330347166E9, 0.0, 2024-06-15 11:13:53.034
99.0, 79009.28157678623, 74693.1820742109, 74527.10861290796, -187500.02235174447, 112185.01474678692, -167057.31803862072, -128093.24301400698, -187500.02235174447, 0.006, 0.976, -0.11, 192.0, 0.0, 0.0, 0.0, 0.0, 0.0, 0.0, 0.0, 0.0, 0.0, 1.7184680330347412E9, 0.0, 2024-06-15 11:13:53.034
100.0, 79155.14906110156, 73124.04490995943, 72685.68249770194, -187500.02235174447, 110081.64853830916, -168637.63107509984, -129528.64969118235, -187500.02235174447, 0.008, 0.986, -0.108, 192.0, 0.0, 64.0, 30.0, 208.0, 252.0, 160.0, 0.0, 0.0, 0.0, 1.71846803303475E9, 0.0, 2024-06-15 11:13:53.034
101.0, 79227.47930615894, 73190.72016366961, 71966.91745125264, -187500.02235174447, 108259.28846112353, -169631.88137196083, -130624.51101833714, -187500.02235174447, 0.008, 0.986, -0.108, 192.0, 0.0, 0.0, 0.0, 0.0, 0.0, 0.0, 0.0, 0.0, 0.0, 1.7184680330347588E9, 0.0, 2024-06-15 11:13:53.034
102.0, 79083.82464454469, 74870.61022169712, 73855.12576760362, -187500.02235174447, 110322.17566039274, -168032.83757362815, -129202.11305643477, -187500.02235174447, 0.008, 0.986, -0.108, 192.0, 0.0, 0.0, 0.0, 0.0, 0.0, 0.0, 0.0, 0.0, 0.0, 1.7184680330347676E9, 0.0, 2024-06-15 11:13:53.034
103.0, 78996.87635861355, 74885.51883524882, 74665.19769015285, -187500.02235174447, 112205.3324824968, -167012.99452936585, -128085.71047612555, -187500.02235174447, 0.008, 0.986, -0.108, 192.0, 0.0, 0.0, 0.0, 0.0, 0.0, 0.0, 0.0, 0.0, 0.0, 1.7184680330347764E9, 0.0, 2024-06-15 11:13:53.034
104.0, 79119.76624962881, 73372.03751469107, 73053.07812131383, -187500.02235174447, 110616.4587278913, -168289.8155796308, -129195.47458833153, -187500.02235174447, 0.008, 0.986, -0.108, 192.0, 0.0, 0.0, 0.0, 0.0, 0.0, 0.0, 0.0, 0.0, 0.0, 1.7184680330347853E9, 0.0, 2024-06-15 11:13:53.034
105.0, 79253.89906810512, 72978.84797797776, 71843.69228407054, -187500.02235174447, 108282.40016489032, -169712.48176246666, -130668.38749270291, -187500.02235174447, 0.008, 0.986, -0.108, 192.0, 0.0, 0.0, 0.0, 0.0, 0.0, 0.0, 0.0, 0.0, 0.0, 1.718468033034794E9, 0.0, 2024-06-15 11:13:53.034
106.0, 79132.19381954597, 74656.14523364845, 73496.91671096286, -187500.02235174447, 109812.06414843371, -168403.27303448596, -129559.76331946414, -187500.02235174447, 0.008, 0.986, -0.108, 192.0, 0.0, 0.0, 0.0, 0.0, 0.0, 0.0, 0.0, 0.0, 0.0, 1.718468033034803E9, 0.0, 2024-06-15 11:13:53.034
107.0, 79023.81021068219, 75025.82073519478, 74705.6319958725, -187500.02235174447, 112079.08982981322, -167083.80485580026, -128189.3555151648, -187500.02235174447, 0.008, 0.986, -0.108, 192.0, 0.0, 0.0, 0.0, 0.0, 0.0, 0.0, 0.0, 0.0, 0.0, 1.7184680330348115E9, 0.0, 2024-06-15 11:13:53.034
108.0, 79098.0180022738, 73652.10487271605, 73433.21423926523, -187500.02235174447, 111103.27972212789, -167971.23616590933, -128903.71726795641, -187500.02235174447, 0.008, 0.986, -0.108, 192.0, 0.0, 0.0, 0.0, 0.0, 0.0, 0.0, 0.0, 0.0, 0.0, 1.7184680330348203E9, 0.0, 2024-06-15 11:13:53.034
109.0, 79239.705710376, 72827.61607499314, 71846.62036259417, -187500.02235174447, 108475.09455383952, -169634.51887780655, -130564.22836354117, -187500.02235174447, 0.008, 0.986, -0.108, 192.0, 0.0, 0.0, 0.0, 0.0, 0.0, 0.0, 0.0, 0.0, 0.0, 1.7184680330348291E9, 0.0, 2024-06-15 11:13:53.034
110.0, 79153.40562503405, 74376.4578552792, 73130.01282572899, -187500.02235174447, 109358.815474369, -168712.4200120473, -129850.49245959432, -187500.02235174447, 0.008, 0.986, -0.108, 192.0, 0.0, 0.0, 0.0, 0.0, 0.0, 0.0, 0.0, 0.0, 0.0, 1.718468033034838E9, 0.0, 2024-06-15 11:13:53.034
111.0, 79036.75187072181, 75126.96237885504, 74681.13448394949, -187500.02235174447, 111888.72002228738, -167158.16910960307, -128291.45828383665, -187500.02235174447, 0.006, 0.98, -0.114, 192.0, 0.0, 48.0, 30.0, 160.0, 252.0, 112.0, 0.0, 0.0, 0.0, 1.7184680330348468E9, 0.0, 2024-06-15 11:13:53.034
112.0, 79091.62540335959, 73976.92042314057, 73796.20656921943, -187500.02235174447, 111531.8744220584, -167683.16688336933, -128640.54782873963, -187500.02235174447, 0.006, 0.98, -0.114, 192.0, 0.0, 0.0, 0.0, 0.0, 0.0, 0.0, 0.0, 0.0, 0.0, 1.7184680330348558E9, 0.0, 2024-06-15 11:13:53.034
113.0, 79260.8057571418, 72812.86392365265, 71961.86595700574, -187500.02235174447, 108768.3717928376, -169528.1245741993, -130436.55519921247, -187500.02235174447, 0.006, 0.98, -0.114, 192.0, 0.0, 0.0, 0.0, 0.0, 0.0, 0.0, 0.0, 0.0, 0.0, 1.7184680330348644E9, 0.0, 2024-06-15 11:13:53.034
114.0, 79207.78741929382, 74091.98720359651, 72783.96311807193, -187500.02235174447, 108932.38889365064, -169069.48912972084, -130180.35950426574, -187500.02235174447, 0.006, 0.98, -0.114, 192.0, 0.0, 0.0, 0.0, 0.0, 0.0, 0.0, 0.0, 0.0, 0.0, 1.7184680330348732E9, 0.0, 2024-06-15 11:13:53.034
115.0, 79056.93549596495, 75167.39668457469, 74592.28629973964, -187500.02235174447, 111601.7459752257, -167305.82473347484, -128463.87964056489, -187500.02235174447, 0.006, 0.98, -0.114, 192.0, 0.0, 0.0, 0.0, 0.0, 0.0, 0.0, 0.0, 0.0, 0.0, 1.718468033034882E9, 0.0, 2024-06-15 11:13:53.034
116.0, 79076.53797585225, 74266.66608651473, 74114.40600328517, -187500.02235174447, 111867.61997552156, -167436.44832807165, -128426.99926221363, -187500.02235174447, 0.006, 0.98, -0.114, 192.0, 0.0, 0.0, 0.0, 0.0, 0.0, 0.0, 0.0, 0.0, 0.0, 1.718468033034891E9, 0.0, 2024-06-15 11:13:53.034
117.0, 79241.27033248787, 72854.97461020644, 72145.41848247273, -187500.02235174447, 109170.97141396659, -169309.0551267928, -130207.76274296794, -187500.02235174447, 0.006, 0.98, -0.114, 192.0, 0.0, 0.0, 0.0, 0.0, 0.0, 0.0, 0.0, 0.0, 0.0, 1.7184680330349E9, 0.0, 2024-06-15 11:13:53.034
118.0, 79233.11194576167, 73762.74600776983, 72432.28077081213, -187500.02235174447, 108586.47329646032, -169372.735246746, -130450.54739124149, -187500.02235174447, 0.006, 0.98, -0.114, 192.0, 0.0, 0.0, 0.0, 0.0, 0.0, 0.0, 0.0, 0.0, 0.0, 1.7184680330349088E9, 0.0, 2024-06-15 11:13:53.034
119.0, 79083.19879569994, 75132.79618415788, 74399.81542823499, -187500.02235174447, 111217.34067408332, -167542.68616946772, -128718.39895467747, -187500.02235174447, 0.006, 0.98, -0.114, 192.0, 0.0, 0.0, 0.0, 0.0, 0.0, 0.0, 0.0, 0.0, 0.0, 1.7184680330349176E9, 0.0, 2024-06-15 11:13:53.034
120.0, 79060.04238844424, 74518.72670873723, 74374.28973606703, -187500.02235174447, 112102.3132923023, -167252.56052643782, -128275.83441446238, -187500.02235174447, 0.006, 0.98, -0.114, 192.0, 0.0, 0.0, 0.0, 0.0, 0.0, 0.0, 0.0, 0.0, 0.0, 1.7184680330349264E9, 0.0, 2024-06-15 11:13:53.034
121.0, 79219.96912002195, 72975.11523665371, 72417.14863981589, -187500.02235174447, 109651.01982963322, -169026.05969024418, -129925.08023084168, -187500.02235174447, 0.006, 0.986, -0.114, 192.0, 0.0, 48.0, 30.0, 208.0, 252.0, 112.0, 0.0, 0.0, 0.0, 1.718468033514013E9, 0.0, 2024-06-15 11:13:53.514
122.0, 79257.0059605844, 73454.9401348758, 72160.90824138025, -187500.02235174447, 108361.61474723993, -169608.7920199385, -130650.37198667193, -187500.02235174447, 0.006, 0.986, -0.114, 192.0, 0.0, 0.0, 0.0, 0.0, 0.0, 0.0, 0.0, 0.0, 0.0, 1.7184680335141437E9, 0.0, 2024-06-15 11:13:53.514
123.0, 79098.0180022738, 75026.49128752844, 74143.48562282154, -187500.02235174447, 110773.7479536233, -167820.9653879363, -129008.25637677389, -187500.02235174447, 0.006, 0.986, -0.114, 192.0, 0.0, 0.0, 0.0, 0.0, 0.0, 0.0, 0.0, 0.0, 0.0, 1.7184680335141544E9, 0.0, 2024-06-15 11:13:53.514
124.0, 79052.48749881834, 74749.53082198273, 74565.77713081565, -187500.02235174447, 112223.28093329442, -167127.4578127215, -128192.59651811082, -187500.02235174447, 0.006, 0.986, -0.114, 192.0, 0.0, 0.0, 0.0, 0.0, 0.0, 0.0, 0.0, 0.0, 0.0, 1.7184680335141644E9, 0.0, 2024-06-15 11:13:53.514
125.0, 79197.37150637765, 73185.46750372261, 72748.51325136582, -187500.02235174447, 110183.259568603, -168666.82245335847, -129584.0373139426, -187500.02235174447, 0.006, 0.986, -0.114, 192.0, 0.0, 0.0, 0.0, 0.0, 0.0, 0.0, 0.0, 0.0, 0.0, 1.7184680335141735E9, 0.0, 2024-06-15 11:13:53.514
126.0, 79282.59870798573, 73189.75903865803, 71952.99231445698, -187500.02235174447, 108274.97938573116, -169728.37385277438, -130743.19878139482, -187500.02235174447, 0.006, 0.986, -0.114, 192.0, 0.0, 0.0, 0.0, 0.0, 0.0, 0.0, 0.0, 0.0, 0.0, 1.7184680335141842E9, 0.0, 2024-06-15 11:13:53.514
127.0, 79136.77592715931, 74866.0728175727, 73814.93733107297, -187500.02235174447, 110278.2768342825, -168150.07247329623, -129344.58307559289, -187500.02235174447, 0.006, 0.986, -0.114, 192.0, 0.0, 0.0, 0.0, 0.0, 0.0, 0.0, 0.0, 0.0, 0.0, 1.7184680335141938E9, 0.0, 2024-06-15 11:13:53.514
128.0, 79053.73919650784, 74940.70529230896, 74682.43088512789, -187500.02235174447, 112210.67454942162, -167103.04970777628, -128206.6110618843, -187500.02235174447, 0.006, 0.986, -0.114, 192.0, 0.0, 0.0, 0.0, 0.0, 0.0, 0.0, 0.0, 0.0, 0.0, 1.718468033514203E9, 0.0, 2024-06-15 11:13:53.514
129.0, 79167.21900310743, 73453.44256799729, 73123.37435762577, -187500.02235174447, 110703.07173765561, -168328.5735045163, -129266.01669383248, -187500.02235174447, 0.006, 0.986, -0.114, 192.0, 0.0, 0.0, 0.0, 0.0, 0.0, 0.0, 0.0, 0.0, 0.0, 1.718468033514212E9, 0.0, 2024-06-15 11:13:53.514
130.0, 79300.03306866086, 72999.05395496535, 71861.86425231269, -187500.02235174447, 108315.34663621744, -169794.0209262396, -130776.18995621086, -187500.02235174447, 0.006, 0.986, -0.114, 192.0, 0.0, 0.0, 0.0, 0.0, 0.0, 0.0, 0.0, 0.0, 0.0, 1.7184680335142212E9, 0.0, 2024-06-15 11:13:53.514
131.0, 79170.97409617592, 74667.18699540937, 73480.57758576603, -187500.02235174447, 109782.91747366398, -168501.46424787812, -129687.92822217087, -187500.02235174447, 0.012, 0.982, -0.106, 192.0, 0.0, 96.0, 30.0, 176.0, 252.0, 176.0, 0.0, 0.0, 0.0, 1.7184680335142314E9, 0.0, 2024-06-15 11:13:53.514
132.0, 79042.89860044702, 75082.66122134462, 74724.20629551486, -187500.02235174447, 112094.19960906502, -167128.9106761111, -128269.33005682589, -187500.02235174447, 0.012, 0.982, -0.106, 192.0, 0.0, 0.0, 0.0, 0.0, 0.0, 0.0, 0.0, 0.0, 0.0, 1.7184680335142417E9, 0.0, 2024-06-15 11:13:53.514
133.0, 79115.96645307142, 73730.24657133181, 73489.58533878152, -187500.02235174447, 111186.83054290182, -167987.3517736616, -128951.8852772576, -187500.02235174447, 0.012, 0.982, -0.106, 192.0, 0.0, 0.0, 0.0, 0.0, 0.0, 0.0, 0.0, 0.0, 0.0, 1.7184680335142517E9, 0.0, 2024-06-15 11:13:53.514
134.0, 79264.29262927684, 72850.57131654875, 71861.66308661259, -187500.02235174447, 108528.49287134325, -169679.22236671715, -130635.39631788687, -187500.02235174447, 0.012, 0.982, -0.106, 192.0, 0.0, 0.0, 0.0, 0.0, 0.0, 0.0, 0.0, 0.0, 0.0, 1.7184680335142653E9, 0.0, 2024-06-15 11:13:53.514
135.0, 79180.42888408052, 74371.69693371022, 73081.84481642781, -187500.02235174447, 109313.1508604468, -168815.21568479727, -129981.04899895776, -187500.02235174447, 0.012, 0.982, -0.106, 192.0, 0.0, 0.0, 0.0, 0.0, 0.0, 0.0, 0.0, 0.0, 0.0, 1.718468033514275E9, 0.0, 2024-06-15 11:13:53.514
136.0, 79057.3154756207, 75162.1887281166, 74666.53879482017, -187500.02235174447, 111865.6083185206, -167227.63833137017, -128396.33266882095, -187500.02235174447, 0.012, 0.982, -0.106, 192.0, 0.0, 0.0, 0.0, 0.0, 0.0, 0.0, 0.0, 0.0, 0.0, 1.7184680335142844E9, 0.0, 2024-06-15 11:13:53.514
137.0, 79100.7225633529, 74033.2244674235, 73840.19480230747, -187500.02235174447, 111597.20857110126, -167689.29126135007, -128683.75375077174, -187500.02235174447, 0.012, 0.982, -0.106, 192.0, 0.0, 0.0, 0.0, 0.0, 0.0, 0.0, 0.0, 0.0, 0.0, 1.7184680335142934E9, 0.0, 2024-06-15 11:13:53.514
138.0, 79270.88639389115, 72821.58110399022, 71971.29839316588, -187500.02235174447, 108824.60878188716, -169554.20905997863, -130493.57449931795, -187500.02235174447, 0.012, 0.982, -0.106, 192.0, 0.0, 0.0, 0.0, 0.0, 0.0, 0.0, 0.0, 0.0, 0.0, 1.7184680335143025E9, 0.0, 2024-06-15 11:13:53.514
139.0, 79230.96617829397, 74063.35461894925, 72715.94675969443, -187500.02235174447, 108864.95368062898, -169203.26432028585, -130342.6108172668, -187500.02235174447, 0.012, 0.982, -0.106, 192.0, 0.0, 0.0, 0.0, 0.0, 0.0, 0.0, 0.0, 0.0, 0.0, 1.7184680335143125E9, 0.0, 2024-06-15 11:13:53.514
140.0, 79072.67112406148, 75187.4461993511, 74563.09492148101, -187500.02235174447, 111543.72084661972, -167426.99354016705, -128620.23009302976, -187500.02235174447, 0.012, 0.982, -0.106, 192.0, 0.0, 0.0, 0.0, 0.0, 0.0, 0.0, 0.0, 0.0, 0.0, 1.718468033514322E9, 0.0, 2024-06-15 11:13:53.514
141.0, 79090.06078124771, 74322.791316842, 74157.67898055066, -187500.02235174447, 111907.60724635211, -167484.41517167274, -128510.05834460956, -187500.02235174447, 0.014, 0.992, -0.10400000000000001, 192.0, 0.0, 112.0, 31.0, 0.0, 252.0, 192.0, 0.0, 0.0, 0.0, 1.7184680335143316E9, 0.0, 2024-06-15 11:13:53.514
142.0, 79250.07691980326, 72879.38271515165, 72189.31730858295, -187500.02235174447, 109244.35219101337, -169331.5186299704, -130258.59060985931, -187500.02235174447, 0.014, 0.992, -0.10400000000000001, 192.0, 0.0, 0.0, 0.0, 0.0, 0.0, 0.0, 0.0, 0.0, 0.0, 1.7184680335143416E9, 0.0, 2024-06-15 11:13:53.514
143.0, 79241.38209121014, 73736.12508012356, 72390.77358135863, -187500.02235174447, 108547.17892970788, -169481.2529660765, -130583.29440156155, -187500.02235174447, 0.014, 0.992, -0.10400000000000001, 192.0, 0.0, 0.0, 0.0, 0.0, 0.0, 0.0, 0.0, 0.0, 0.0, 1.7184680335143511E9, 0.0, 2024-06-15 11:13:53.514
144.0, 79078.81785378669, 75132.5279632244, 74371.54047149903, -187500.02235174447, 111154.39816169717, -167652.4108829988, -128859.68433137947, -187500.02235174447, 0.014, 0.992, -0.10400000000000001, 192.0, 0.0, 0.0, 0.0, 0.0, 0.0, 0.0, 0.0, 0.0, 0.0, 1.7184680335143602E9, 0.0, 2024-06-15 11:13:53.514
145.0, 79062.0093419563, 74566.4029796604, 74405.24690213763, -187500.02235174447, 112112.23746684045, -167311.70324226658, -128373.26566854307, -187500.02235174447, 0.014, 0.992, -0.10400000000000001, 192.0, 0.0, 0.0, 0.0, 0.0, 0.0, 0.0, 0.0, 0.0, 0.0, 1.7184680335143704E9, 0.0, 2024-06-15 11:13:53.514
146.0, 79225.13237299114, 73019.4834493975, 72464.42257933886, -187500.02235174447, 109714.52113563076, -169060.92841159445, -129993.81184504174, -187500.02235174447, 0.014, 0.992, -0.10400000000000001, 192.0, 0.0, 0.0, 0.0, 0.0, 0.0, 0.0, 0.0, 0.0, 0.0, 1.71846803351438E9, 0.0, 2024-06-15 11:13:53.514
147.0, 79267.89126013414, 73439.36096899044, 72127.00064504155, -187500.02235174447, 108332.4680724702, -169723.8140969055, -130792.43967442986, -187500.02235174447, 0.014, 0.992, -0.10400000000000001, 192.0, 0.0, 0.0, 0.0, 0.0, 0.0, 0.0, 0.0, 0.0, 0.0, 1.7184680335143893E9, 0.0, 2024-06-15 11:13:53.514
148.0, 79092.00538301532, 75027.69828172903, 74107.29814854839, -187500.02235174447, 110703.85404871155, -167946.80570921968, -129164.74093970549, -187500.02235174447, 0.014, 0.992, -0.10400000000000001, 192.0, 0.0, 0.0, 0.0, 0.0, 0.0, 0.0, 0.0, 0.0, 0.0, 1.718468033514398E9, 0.0, 2024-06-15 11:13:53.514
149.0, 79047.48070806035, 74788.51226431278, 74586.63130839245, -187500.02235174447, 112215.2343052905, -167213.82495329677, -128310.39021139029, -187500.02235174447, 0.014, 0.992, -0.10400000000000001, 192.0, 0.0, 0.0, 0.0, 0.0, 0.0, 0.0, 0.0, 0.0, 0.0, 1.7184680335144072E9, 0.0, 2024-06-15 11:13:53.514
150.0, 79193.9963929649, 73226.97469317612, 72804.79494390429, -187500.02235174447, 110241.55291814244, -168719.05848015053, -129662.22371604726, -187500.02235174447, 0.014, 0.992, -0.10400000000000001, 192.0, 0.0, 0.0, 0.0, 0.0, 0.0, 0.0, 0.0, 0.0, 0.0, 1.7184680335144162E9, 0.0, 2024-06-15 11:13:53.514
151.0, 79281.25760331842, 73160.59001214386, 71941.19059338458, -187500.02235174447, 108265.2563768931, -169835.05872905956, -130866.37924508801, -187500.02235174447, 0.014, 0.992, -0.10400000000000001, 192.0, 0.0, 0.0, 0.0, 0.0, 0.0, 0.0, 0.0, 0.0, 0.0, 1.718468033514425E9, 0.0, 2024-06-15 11:13:53.514
152.0, 79139.32402602721, 74842.24585798333, 73772.69253405245, -187500.02235174447, 110193.92135070817, -168299.8291611468, -129515.93154858728, -187500.02235174447, 0.01, 0.986, -0.112, 192.0, 0.0, 80.0, 30.0, 208.0, 252.0, 128.0, 0.0, 0.0, 0.0, 1.7184680335144353E9, 0.0, 2024-06-15 11:13:53.514
153.0, 79045.89373420403, 74953.28932443731, 74697.45125740186, -187500.02235174447, 112187.67460437711, -167207.18648519355, -128338.77692684853, -187500.02235174447, 0.01, 0.986, -0.112, 192.0, 0.0, 0.0, 0.0, 0.0, 0.0, 0.0, 0.0, 0.0, 0.0, 1.718468033514445E9, 0.0, 2024-06-15 11:13:53.514
154.0, 79148.42118602053, 73472.79917869558, 73176.39269547375, -187500.02235174447, 110761.1415697505, -168381.39067666422, -129343.55489534794, -187500.02235174447, 0.01, 0.986, -0.112, 192.0, 0.0, 0.0, 0.0, 0.0, 0.0, 0.0, 0.0, 0.0, 0.0, 1.7184680335144544E9, 0.0, 2024-06-15 11:13:53.514
155.0, 79278.73185619497, 72954.41752128811, 71853.97408651997, -187500.02235174447, 108334.41267423781, -169868.6981044648, -130867.5862392886, -187500.02235174447, 0.01, 0.986, -0.112, 192.0, 0.0, 0.0, 0.0, 0.0, 0.0, 0.0, 0.0, 0.0, 0.0, 1.7184680335144637E9, 0.0, 2024-06-15 11:13:53.514
156.0, 79148.66705520953, 74601.85284636651, 73418.66325362484, -187500.02235174447, 109715.45990889787, -168613.87117074386, -129821.23402610232, -187500.02235174447, 0.01, 0.986, -0.112, 192.0, 0.0, 0.0, 0.0, 0.0, 0.0, 0.0, 0.0, 0.0, 0.0, 1.7184680335144725E9, 0.0, 2024-06-15 11:13:53.514
157.0, 79021.150353092, 75061.3153053898, 74712.20340874237, -187500.02235174447, 112065.32115522875, -167203.967833992, -128371.11990107536, -187500.02235174447, 0.01, 0.986, -0.112, 192.0, 0.0, 0.0, 0.0, 0.0, 0.0, 0.0, 0.0, 0.0, 0.0, 1.7184680335144813E9, 0.0, 2024-06-15 11:13:53.514
158.0, 79100.78961858626, 73740.7071877369, 73518.03910947313, -187500.02235174447, 111219.3076275954, -168045.48866098985, -129037.87243817718, -187500.02235174447, 0.01, 0.986, -0.112, 192.0, 0.0, 0.0, 0.0, 0.0, 0.0, 0.0, 0.0, 0.0, 0.0, 1.718468033514491E9, 0.0, 2024-06-15 11:13:53.514
159.0, 79253.6084954272, 72824.46447902494, 71860.16551973409, -187500.02235174447, 108524.38015036347, -169797.4854466302, -130776.01114225521, -187500.02235174447, 0.01, 0.986, -0.112, 192.0, 0.0, 0.0, 0.0, 0.0, 0.0, 0.0, 0.0, 0.0, 0.0, 1.7184680335145009E9, 0.0, 2024-06-15 11:13:53.514
160.0, 79159.70881697045, 74306.80981955645, 73035.46494668305, -187500.02235174447, 109231.70110365166, -168967.20754709336, -130156.53254467637, -187500.02235174447, 0.01, 0.986, -0.112, 192.0, 0.0, 0.0, 0.0, 0.0, 0.0, 0.0, 0.0, 0.0, 0.0, 1.71846803351451E9, 0.0, 2024-06-15 11:13:53.514
161.0, 79029.5099055183, 75130.49395447898, 74662.38137035149, -187500.02235174447, 111819.04963482019, -167331.21631517605, -128529.92904543031, -187500.02235174447, 0.01, 0.986, -0.112, 192.0, 0.0, 0.0, 0.0, 0.0, 0.0, 0.0, 0.0, 0.0, 0.0, 1.718468033514519E9, 0.0, 2024-06-15 11:13:53.514
162.0, 79078.16965319749, 74030.0728714553, 73870.34730557767, -187500.02235174447, 111617.07927192203, -167767.81293962157, -128793.47846430284, -187500.02235174447, 0.01, 0.984, -0.112, 192.0, 0.0, 80.0, 30.0, 192.0, 252.0, 128.0, 0.0, 0.0, 0.0, 1.718468033514528E9, 0.0, 2024-06-15 11:13:53.514
163.0, 79239.68335863153, 72784.27604249431, 71984.48592239451, -187500.02235174447, 108859.16457881506, -169625.60053176887, -130590.89399467636, -187500.02235174447, 0.01, 0.984, -0.112, 192.0, 0.0, 0.0, 0.0, 0.0, 0.0, 0.0, 0.0, 0.0, 0.0, 1.718468033514542E9, 0.0, 2024-06-15 11:13:53.514
164.0, 79204.5464163478, 73979.53557724186, 72666.52705270375, -187500.02235174447, 108815.86924980512, -169316.65471990762, -130481.63866777883, -187500.02235174447, 0.01, 0.984, -0.112, 192.0, 0.0, 0.0, 0.0, 0.0, 0.0, 0.0, 0.0, 0.0, 0.0, 1.718468033514552E9, 0.0, 2024-06-15 11:13:53.514
165.0, 79046.74310049333, 75131.99152135749, 74526.81804023005, -187500.02235174447, 111490.3672326049, -167524.82712564792, -128750.83133588212, -187500.02235174447, 0.01, 0.984, -0.112, 192.0, 0.0, 0.0, 0.0, 0.0, 0.0, 0.0, 0.0, 0.0, 0.0, 1.7184680335145621E9, 0.0, 2024-06-15 11:13:53.514
166.0, 79051.68283601795, 74294.65047057277, 74164.2056899316, -187500.02235174447, 111926.27095297229, -167537.545268243, -128598.9512323083, -187500.02235174447, 0.01, 0.984, -0.112, 192.0, 0.0, 0.0, 0.0, 0.0, 0.0, 0.0, 0.0, 0.0, 0.0, 1.7184680335145717E9, 0.0, 2024-06-15 11:13:53.514
167.0, 79223.83597181273, 72843.53051704532, 72189.80904696096, -187500.02235174447, 109274.08001113893, -169407.87218902973, -130369.54466933546, -187500.02235174447, 0.01, 0.984, -0.112, 192.0, 0.0, 0.0, 0.0, 0.0, 0.0, 0.0, 0.0, 0.0, 0.0, 1.718468033514581E9, 0.0, 2024-06-15 11:13:53.514
168.0, 79206.04398322631, 73646.29341915768, 72339.49867957816, -187500.02235174447, 108502.363682075, -169602.77940068, -130737.18616213635, -187500.02235174447, 0.01, 0.984, -0.112, 192.0, 0.0, 0.0, 0.0, 0.0, 0.0, 0.0, 0.0, 0.0, 0.0, 1.7184680335145912E9, 0.0, 2024-06-15 11:13:53.514
169.0, 79042.65273125801, 75069.63015432718, 74321.2937499635, -187500.02235174447, 111092.77440223389, -167763.45434945278, -129010.78212389734, -187500.02235174447, 0.01, 0.984, -0.112, 192.0, 0.0, 0.0, 0.0, 0.0, 0.0, 0.0, 0.0, 0.0, 0.0, 1.7184680335146008E9, 0.0, 2024-06-15 11:13:53.514
170.0, 79025.12896360505, 74541.52548808164, 74406.85622773842, -187500.02235174447, 112125.58145828027, -167371.02477205097, -128472.88739358037, -187500.02235174447, 0.01, 0.984, -0.112, 192.0, 0.0, 0.0, 0.0, 0.0, 0.0, 0.0, 0.0, 0.0, 0.0, 1.7184680335146103E9, 0.0, 2024-06-15 11:13:53.514
171.0, 79185.92741321653, 72982.1783879016, 72481.09698070252, -187500.02235174447, 109772.72507819236, -169092.4667230209, -130060.42004351856, -187500.02235174447, 0.01, 0.984, -0.112, 192.0, 0.0, 0.0, 0.0, 0.0, 0.0, 0.0, 0.0, 0.0, 0.0, 1.7184680335146196E9, 0.0, 2024-06-15 11:13:53.514
172.0, 79220.63967235562, 73334.88891540634, 72083.05711544241, -187500.02235174447, 108319.36995021939, -169786.7789610361, -130882.36074237357, -187500.02235174447, 0.014, 0.984, -0.10400000000000001, 192.0, 0.0, 112.0, 30.0, 192.0, 252.0, 192.0, 0.0, 0.0, 0.0, 1.7184680335146296E9, 0.0, 2024-06-15 11:13:53.514
173.0, 79068.3125338927, 74949.62363834663, 74043.75213906195, -187500.02235174447, 110622.13607098295, -168062.7218559649, -129314.85525546734, -187500.02235174447, 0.014, 0.984, -0.10400000000000001, 192.0, 0.0, 0.0, 0.0, 0.0, 0.0, 0.0, 0.0, 0.0, 0.0, 1.7184680335146394E9, 0.0, 2024-06-15 11:13:53.514
174.0, 79010.55562622019, 74754.22468831834, 74590.29699448311, -187500.02235174447, 112198.73871788249, -167289.61971874474, -128427.35689012491, -187500.02235174447, 0.014, 0.984, -0.10400000000000001, 192.0, 0.0, 0.0, 0.0, 0.0, 0.0, 0.0, 0.0, 0.0, 0.0, 1.71846803351465E9, 0.0, 2024-06-15 11:13:53.514
175.0, 79131.2773980233, 73181.31007925393, 72831.79585120629, -187500.02235174447, 110294.0348141235, -168745.36648337444, -129728.09430695705, -187500.02235174447, 0.014, 0.984, -0.10400000000000001, 192.0, 0.0, 0.0, 0.0, 0.0, 0.0, 0.0, 0.0, 0.0, 0.0, 1.71846803351466E9, 0.0, 2024-06-15 11:13:53.514
176.0, 79218.449201399, 73056.7438074045, 71900.4210114981, -187500.02235174447, 108247.30792609548, -169915.97204398777, -130982.69772323343, -187500.02235174447, 0.014, 0.984, -0.10400000000000001, 192.0, 0.0, 0.0, 0.0, 0.0, 0.0, 0.0, 0.0, 0.0, 0.0, 1.7184680335146692E9, 0.0, 2024-06-15 11:13:53.514
177.0, 79077.58850784165, 74749.03908360472, 73709.88413213303, -187500.02235174447, 110118.10423351577, -168402.02133679646, -129660.54733521311, -187500.02235174447, 0.014, 0.984, -0.10400000000000001, 192.0, 0.0, 0.0, 0.0, 0.0, 0.0, 0.0, 0.0, 0.0, 0.0, 1.7184680335146787E9, 0.0, 2024-06-15 11:13:53.514
178.0, 78983.33120147363, 74903.95902442445, 74677.35703913654, -187500.02235174447, 112163.28885117637, -167262.19412829808, -128440.81264028701, -187500.02235174447, 0.014, 0.984, -0.10400000000000001, 192.0, 0.0, 0.0, 0.0, 0.0, 0.0, 0.0, 0.0, 0.0, 0.0, 1.7184680335146887E9, 0.0, 2024-06-15 11:13:53.514
179.0, 79081.72358056589, 73437.97516083422, 73198.76679167352, -187500.02235174447, 110814.45048027641, -168389.70552560157, -129393.6451546723, -187500.02235174447, 0.014, 0.984, -0.10400000000000001, 192.0, 0.0, 0.0, 0.0, 0.0, 0.0, 0.0, 0.0, 0.0, 0.0, 1.7184680335146987E9, 0.0, 2024-06-15 11:13:53.514
180.0, 79214.26942518586, 72858.84146199722, 71824.89446698362, -187500.02235174447, 108350.12595058989, -169903.34330837053, -130936.0049290663, -187500.02235174447, 0.014, 0.984, -0.10400000000000001, 192.0, 0.0, 0.0, 0.0, 0.0, 0.0, 0.0, 0.0, 0.0, 0.0, 1.7184680335147085E9, 0.0, 2024-06-15 11:13:53.514
181.0, 79097.3698016846, 74496.82199917102, 73349.68577023575, -187500.02235174447, 109635.66418119242, -168722.74651798565, -129965.76040575033, -187500.02235174447, 0.014, 0.984, -0.10400000000000001, 192.0, 0.0, 0.0, 0.0, 0.0, 0.0, 0.0, 0.0, 0.0, 0.0, 1.7184680335147183E9, 0.0, 2024-06-15 11:13:53.514
182.0, 78975.88807057, 75014.84602866722, 74696.26661494572, -187500.02235174447, 112021.06470120726, -167289.03857338888, -128496.75905665864, -187500.02235174447, 0.008, 0.98, -0.106, 192.0, 0.0, 64.0, 30.0, 160.0, 252.0, 176.0, 0.0, 0.0, 0.0, 1.7184680335147283E9, 0.0, 2024-06-15 11:13:53.514
183.0, 79050.408786584, 73725.61976022956, 73557.7581593702, -187500.02235174447, 111265.95571827362, -168072.13194038058, -129103.54186338687, -187500.02235174447, 0.008, 0.98, -0.106, 192.0, 0.0, 0.0, 0.0, 0.0, 0.0, 0.0, 0.0, 0.0, 0.0, 1.718468033514738E9, 0.0, 2024-06-15 11:13:53.514
184.0, 79216.83987579822, 72760.53848988278, 71854.21995570898, -187500.02235174447, 108546.48602562977, -169853.05188334608, -130868.25679162226, -187500.02235174447, 0.008, 0.98, -0.106, 192.0, 0.0, 0.0, 0.0, 0.0, 0.0, 0.0, 0.0, 0.0, 0.0, 1.718468033514748E9, 0.0, 2024-06-15 11:13:53.514
185.0, 79142.40856676204, 74214.81003937841, 72965.74985572694, -187500.02235174447, 109138.11434961729, -169134.35389213014, -130360.84984074235, -187500.02235174447, 0.008, 0.98, -0.106, 192.0, 0.0, 0.0, 0.0, 0.0, 0.0, 0.0, 0.0, 0.0, 0.0, 1.718468033514758E9, 0.0, 2024-06-15 11:13:53.514
186.0, 78998.28451851422, 75094.01590752792, 74642.55537301963, -187500.02235174447, 111752.21791889882, -167469.26068893203, -128709.16768421742, -187500.02235174447, 0.008, 0.98, -0.106, 192.0, 0.0, 0.0, 0.0, 0.0, 0.0, 0.0, 0.0, 0.0, 0.0, 1.718468033514768E9, 0.0, 2024-06-15 11:13:53.514
187.0, 79037.55653352219, 74037.76187154793, 73910.26752117486, -187500.02235174447, 111640.45919662228, -167838.62326605598, -128905.5724627462, -187500.02235174447, 0.008, 0.98, -0.106, 192.0, 0.0, 0.0, 0.0, 0.0, 0.0, 0.0, 0.0, 0.0, 0.0, 1.7184680335147777E9, 0.0, 2024-06-15 11:13:53.514
188.0, 79205.84281752621, 72765.38881842958, 72005.07187903785, -187500.02235174447, 108885.4502302945, -169693.14750351282, -130695.76837966066, -187500.02235174447, 0.008, 0.98, -0.106, 192.0, 0.0, 0.0, 0.0, 0.0, 0.0, 0.0, 0.0, 0.0, 0.0, 1.7184680335147877E9, 0.0, 2024-06-15 11:13:53.514
189.0, 79150.81282267724, 73899.0916489472, 72623.03055799373, -187500.02235174447, 108769.19880738245, -169408.47568613003, -130606.00377392815, -187500.02235174447, 0.008, 0.98, -0.106, 192.0, 0.0, 0.0, 0.0, 0.0, 0.0, 0.0, 0.0, 0.0, 0.0, 1.7184680335147977E9, 0.0, 2024-06-15 11:13:53.514
190.0, 78982.97357356234, 75071.35123865024, 74495.79381892607, -187500.02235174447, 111443.47327273767, -167599.43724863973, -128863.55118317023, -187500.02235174447, 0.008, 0.98, -0.106, 192.0, 0.0, 0.0, 0.0, 0.0, 0.0, 0.0, 0.0, 0.0, 0.0, 1.7184680335148077E9, 0.0, 2024-06-15 11:13:53.514
191.0, 78985.38756196351, 74271.80698773944, 74191.89950131172, -187500.02235174447, 111951.34961025116, -167563.40623657778, -128665.89470695195, -187500.02235174447, 0.008, 0.98, -0.106, 192.0, 0.0, 0.0, 0.0, 0.0, 0.0, 0.0, 0.0, 0.0, 0.0, 1.7184680335148177E9, 0.0, 2024-06-15 11:13:53.514
192.0, 79161.1393286156, 72805.59960670467, 72211.2890733825, -187500.02235174447, 109320.79515705051, -169418.489267646, -130416.37157396933, -187500.02235174447, 0.008, 0.98, -0.106, 192.0, 0.0, 0.0, 0.0, 0.0, 0.0, 0.0, 0.0, 0.0, 0.0, 1.7184680335148275E9, 0.0, 2024-06-15 11:13:53.514
193.0, 79165.29675308427, 73556.81938610309, 72289.25195804262, -187500.02235174447, 108455.8497018635, -169681.61400337386, -130845.27919832221, -187500.02235174447, 0.004, 0.98, -0.106, 192.0, 0.0, 32.0, 30.0, 160.0, 252.0, 176.0, 0.0, 0.0, 0.0, 1.7184680335148375E9, 0.0, 2024-06-15 11:13:53.514
194.0, 79010.1979983089, 75013.86255191118, 74272.74576100658, -187500.02235174447, 111015.32560769626, -167867.1217402365, -129146.34545401878, -187500.02235174447, 0.004, 0.98, -0.106, 192.0, 0.0, 0.0, 0.0, 0.0, 0.0, 0.0, 0.0, 0.0, 0.0, 1.7184680335148473E9, 0.0, 2024-06-15 11:13:53.514
195.0, 78979.59846014959, 74529.45554607577, 74430.43731813876, -187500.02235174447, 112131.88465021667, -167412.64372022674, -128550.17972590683, -187500.02235174447, 0.004, 0.98, -0.106, 192.0, 0.0, 0.0, 0.0, 0.0, 0.0, 0.0, 0.0, 0.0, 0.0, 1.7184680335148566E9, 0.0, 2024-06-15 11:13:53.514
196.0, 79124.21424677542, 72961.88300393618, 72521.6653968889, -187500.02235174447, 109838.46155863543, -169075.6582111905, -130077.58618326024, -187500.02235174447, 0.004, 0.98, -0.106, 192.0, 0.0, 0.0, 0.0, 0.0, 0.0, 0.0, 0.0, 0.0, 0.0, 1.718468033514866E9, 0.0, 2024-06-15 11:13:53.514
197.0, 79185.70389577198, 73254.37793187832, 72036.72194918657, -187500.02235174447, 108282.1095922124, -169858.4833572487, -130987.19042386896, -187500.02235174447, 0.004, 0.98, -0.106, 192.0, 0.0, 0.0, 0.0, 0.0, 0.0, 0.0, 0.0, 0.0, 0.0, 1.7184680335148757E9, 0.0, 2024-06-15 11:13:53.514
198.0, 79039.09880388962, 74887.23991957188, 73992.83486519277, -187500.02235174447, 110537.40060775288, -168170.63607819512, -129461.41564386079, -187500.02235174447, 0.004, 0.98, -0.106, 192.0, 0.0, 0.0, 0.0, 0.0, 0.0, 0.0, 0.0, 0.0, 0.0, 1.718468033514886E9, 0.0, 2024-06-15 11:13:53.514
199.0, 78958.23019245031, 74736.56681019865, 74592.26394799519, -187500.02235174447, 112191.65321489016, -167326.1871726736, -128503.3304695285, -187500.02235174447, 0.004, 0.98, -0.106, 192.0, 0.0, 0.0, 0.0, 0.0, 0.0, 0.0, 0.0, 0.0, 0.0, 1.7184680335148952E9, 0.0, 2024-06-15 11:13:53.514
200.0, 79084.02581024478, 73181.5783001874, 72859.95904921998, -187500.02235174447, 110360.1959777112, -168720.8242679625, -129738.33140591758, -187500.02235174447, 0.004, 0.98, -0.106, 192.0, 0.0, 0.0, 0.0, 0.0, 0.0, 0.0, 0.0, 0.0, 0.0, 1.7184680335149047E9, 0.0, 2024-06-15 11:13:53.514
201.0, 79188.09553242869, 73000.84209452178, 71864.18883373604, -187500.02235174447, 108249.47604530765, -169933.38405291844, -131027.31180516623, -187500.02235174447, 0.004, 0.98, -0.106, 192.0, 0.0, 0.0, 0.0, 0.0, 0.0, 0.0, 0.0, 0.0, 0.0, 1.7184680335149145E9, 0.0, 2024-06-15 11:13:53.514
202.0, 79056.62257154257, 74698.25592020225, 73643.72296854532, -187500.02235174447, 110044.29877332435, -168470.99882018554, -129758.98441779429, -187500.02235174447, 0.004, 0.98, -0.106, 192.0, 0.0, 0.0, 0.0, 0.0, 0.0, 0.0, 0.0, 0.0, 0.0, 1.7184680335149243E9, 0.0, 2024-06-15 11:13:53.514
203.0, 78969.92015480043, 74903.5790447687, 74662.4260738404, -187500.02235174447, 112123.48039430147, -167313.0890504228, -128524.76579246114, -187500.02235174447, 0.004, 0.978, -0.10200000000000001, 192.0, 0.0, 32.0, 30.0, 144.0, 252.0, 208.0, 0.0, 0.0, 0.0, 1.7184680335149338E9, 0.0, 2024-06-15 11:13:53.514
204.0, 79055.84026048664, 73456.34829477649, 73228.38285307681, -187500.02235174447, 110848.58159405967, -168394.17587449265, -129434.07946039195, -187500.02235174447, 0.004, 0.978, -0.10200000000000001, 192.0, 0.0, 0.0, 0.0, 0.0, 0.0, 0.0, 0.0, 0.0, 0.0, 1.7184680335149438E9, 0.0, 2024-06-15 11:13:53.514
205.0, 79197.88559650011, 72827.8395924377, 71804.8002487183, -187500.02235174447, 108329.7188079022, -169972.00786733723, -131036.45366864845, -187500.02235174447, 0.004, 0.978, -0.10200000000000001, 192.0, 0.0, 0.0, 0.0, 0.0, 0.0, 0.0, 0.0, 0.0, 0.0, 1.7184680335149536E9, 0.0, 2024-06-15 11:13:53.514
206.0, 79097.45920866242, 74456.36534170691, 73287.21264448317, -187500.02235174447, 109533.91904043187, -168866.33412436655, -130140.97573053549, -187500.02235174447, 0.004, 0.978, -0.10200000000000001, 192.0, 0.0, 0.0, 0.0, 0.0, 0.0, 0.0, 0.0, 0.0, 0.0, 1.7184680335149634E9, 0.0, 2024-06-15 11:13:53.514
207.0, 78977.16212000395, 75024.61374099419, 74687.46002763034, -187500.02235174447, 111971.5332354943, -167386.8051036364, -128633.77525016967, -187500.02235174447, 0.004, 0.978, -0.10200000000000001, 192.0, 0.0, 0.0, 0.0, 0.0, 0.0, 0.0, 0.0, 0.0, 0.0, 1.7184680335149732E9, 0.0, 2024-06-15 11:13:53.514
208.0, 79040.48461204584, 73752.73242625385, 73600.36058430202, -187500.02235174447, 111312.40264325174, -168090.21450164492, -129161.85756467076, -187500.02235174447, 0.004, 0.978, -0.10200000000000001, 192.0, 0.0, 0.0, 0.0, 0.0, 0.0, 0.0, 0.0, 0.0, 0.0, 1.7184680335149832E9, 0.0, 2024-06-15 11:13:53.514
209.0, 79204.1440849476, 72738.45496636092, 71864.72527560298, -187500.02235174447, 108583.05347955866, -169882.28796509362, -130926.5054376728, -187500.02235174447, 0.004, 0.978, -0.10200000000000001, 192.0, 0.0, 0.0, 0.0, 0.0, 0.0, 0.0, 0.0, 0.0, 0.0, 1.718468033514993E9, 0.0, 2024-06-15 11:13:53.514
210.0, 79123.74486014186, 74155.46615784957, 72923.77327963988, -187500.02235174447, 109102.75388988899, -169183.6394886541, -130436.26462653454, -187500.02235174447, 0.004, 0.978, -0.10200000000000001, 192.0, 0.0, 0.0, 0.0, 0.0, 0.0, 0.0, 0.0, 0.0, 0.0, 1.7184680335150027E9, 0.0, 2024-06-15 11:13:53.515
211.0, 78990.43905621041, 75073.63111658467, 74616.20266630682, -187500.02235174447, 111707.15680207692, -167529.65510245028, -128805.21313014188, -187500.02235174447, 0.004, 0.978, -0.10200000000000001, 192.0, 0.0, 0.0, 0.0, 0.0, 0.0, 0.0, 0.0, 0.0, 0.0, 1.7184680335150127E9, 0.0, 2024-06-15 11:13:53.515
212.0, 79011.40499250949, 74041.6287233387, 73946.29853323681, -187500.02235174447, 111682.56988317608, -167836.47749858827, -128939.92709397401, -187500.02235174447, 0.004, 0.978, -0.10200000000000001, 192.0, 0.0, 0.0, 0.0, 0.0, 0.0, 0.0, 0.0, 0.0, 0.0, 1.7184680335150228E9, 0.0, 2024-06-15 11:13:53.515
213.0, 79166.92843042951, 72721.46764057489, 72024.51789671397, -187500.02235174447, 108947.05163801333, -169674.7520178261, -130705.71490594327, -187500.02235174447, 0.004, 0.976, -0.108, 192.0, 0.0, 32.0, 30.0, 128.0, 252.0, 160.0, 0.0, 0.0, 0.0, 1.7184680335150325E9, 0.0, 2024-06-15 11:13:53.515
214.0, 79138.49701148237, 73819.89941834204, 72564.49133926527, -187500.02235174447, 108713.94529508892, -169489.63487024725, -130712.37572579096, -187500.02235174447, 0.004, 0.976, -0.108, 192.0, 0.0, 0.0, 0.0, 0.0, 0.0, 0.0, 0.0, 0.0, 0.0, 1.7184680335150423E9, 0.0, 2024-06-15 11:13:53.515
215.0, 79002.24077728282, 75060.37653212268, 74458.48875743017, -187500.02235174447, 111353.64161177179, -167725.1434594564, -129021.5556647248, -187500.02235174447, 0.004, 0.976, -0.108, 192.0, 0.0, 0.0, 0.0, 0.0, 0.0, 0.0, 0.0, 0.0, 0.0, 1.718468033515052E9, 0.0, 2024-06-15 11:13:53.515
216.0, 79004.38654475052, 74308.55325562398, 74227.37171976229, -187500.02235174447, 111946.54398519326, -167644.05133057255, -128781.45322578588, -187500.02235174447, 0.004, 0.976, -0.108, 192.0, 0.0, 0.0, 0.0, 0.0, 0.0, 0.0, 0.0, 0.0, 0.0, 1.7184680335150616E9, 0.0, 2024-06-15 11:13:53.515
217.0, 79144.24140980738, 72802.179789803, 72261.24522224012, -187500.02235174447, 109386.17400958229, -169435.4318899431, -130463.33258906992, -187500.02235174447, 0.004, 0.976, -0.108, 192.0, 0.0, 0.0, 0.0, 0.0, 0.0, 0.0, 0.0, 0.0, 0.0, 1.7184680335150719E9, 0.0, 2024-06-15 11:13:53.515
218.0, 79147.25889530884, 73486.07611490204, 72260.28409722855, -187500.02235174447, 108430.83809981801, -169765.58950729246, -130954.66863568648, -187500.02235174447, 0.004, 0.976, -0.108, 192.0, 0.0, 0.0, 0.0, 0.0, 0.0, 0.0, 0.0, 0.0, 0.0, 1.718468033515082E9, 0.0, 2024-06-15 11:13:53.515
219.0, 78977.96678280435, 74956.6420861056, 74243.7779001925, -187500.02235174447, 110960.83205471422, -167947.1856888754, -129257.6571414062, -187500.02235174447, 0.004, 0.976, -0.108, 192.0, 0.0, 0.0, 0.0, 0.0, 0.0, 0.0, 0.0, 0.0, 0.0, 1.718468033515092E9, 0.0, 2024-06-15 11:13:53.515
220.0, 78931.2292851483, 74502.56639749603, 74441.38967292187, -187500.02235174447, 112134.63391478467, -167454.48618584708, -128627.06972683308, -187500.02235174447, 0.004, 0.976, -0.108, 192.0, 0.0, 0.0, 0.0, 0.0, 0.0, 0.0, 0.0, 0.0, 0.0, 1.7184680335151024E9, 0.0, 2024-06-15 11:13:53.515
221.0, 79071.62059207208, 72923.97444533998, 72540.26204827572, -187500.02235174447, 109877.24183526539, -169120.1158309121, -130156.01845455391, -187500.02235174447, 0.004, 0.976, -0.108, 192.0, 0.0, 0.0, 0.0, 0.0, 0.0, 0.0, 0.0, 0.0, 0.0, 1.7184680335151124E9, 0.0, 2024-06-15 11:13:53.515
222.0, 79121.28616825178, 73146.70957883711, 72002.72494587004, -187500.02235174447, 108268.96676647267, -169935.03808200813, -131091.75188443088, -187500.02235174447, 0.004, 0.976, -0.108, 192.0, 0.0, 0.0, 0.0, 0.0, 0.0, 0.0, 0.0, 0.0, 0.0, 1.7184680335151231E9, 0.0, 2024-06-15 11:13:53.515
223.0, 78958.52076512823, 74767.903955925, 73935.18971624253, -187500.02235174447, 110481.29772917007, -168248.44250064404, -129568.39109282388, -187500.02235174447, 0.006, 0.976, -0.106, 192.0, 0.0, 48.0, 30.0, 128.0, 252.0, 176.0, 0.0, 0.0, 0.0, 1.7184680335151336E9, 0.0, 2024-06-15 11:13:53.515
224.0, 78877.42863624438, 74645.12582363198, 74572.99674427471, -187500.02235174447, 112166.30633667784, -167392.3706880058, -128604.0027265552, -187500.02235174447, 0.006, 0.976, -0.106, 192.0, 0.0, 0.0, 0.0, 0.0, 0.0, 0.0, 0.0, 0.0, 0.0, 1.718468033515144E9, 0.0, 2024-06-15 11:13:53.515
225.0, 78986.147521275, 73086.13635136322, 72871.13492144764, -187500.02235174447, 110380.31254772098, -168794.76383862065, -129847.07264269266, -187500.02235174447, 0.006, 0.976, -0.106, 192.0, 0.0, 0.0, 0.0, 0.0, 0.0, 0.0, 0.0, 0.0, 0.0, 1.7184680335151749E9, 0.0, 2024-06-15 11:13:53.515
226.0, 79074.12398745108, 72841.83178446672, 71827.59902806272, -187500.02235174447, 108212.57331521194, -170081.1514355125, -131202.30361250683, -187500.02235174447, 0.006, 0.976, -0.106, 192.0, 0.0, 0.0, 0.0, 0.0, 0.0, 0.0, 0.0, 0.0, 0.0, 1.7184680335151875E9, 0.0, 2024-06-15 11:13:53.515
227.0, 78916.0300989187, 74525.07460416254, 73579.43935149186, -187500.02235174447, 109964.0560107298, -168633.22778144214, -129947.7225479749, -187500.02235174447, 0.006, 0.976, -0.106, 192.0, 0.0, 0.0, 0.0, 0.0, 0.0, 0.0, 0.0, 0.0, 0.0, 1.7184680335152245E9, 0.0, 2024-06-15 11:13:53.515
228.0, 78808.36174587748, 74765.22174659035, 74629.43489902436, -187500.02235174447, 112088.81283865128, -167435.19663038215, -128682.97143971581, -187500.02235174447, 0.006, 0.976, -0.106, 192.0, 0.0, 0.0, 0.0, 0.0, 0.0, 0.0, 0.0, 0.0, 0.0, 1.7184680335152783E9, 0.0, 2024-06-15 11:13:53.515
229.0, 78891.33142129557, 73326.0599763465, 73222.4819925406, -187500.02235174447, 110878.5776351187, -168485.14747442573, -129563.11608113244, -187500.02235174447, 0.006, 0.976, -0.106, 192.0, 0.0, 0.0, 0.0, 0.0, 0.0, 0.0, 0.0, 0.0, 0.0, 1.7184680335153103E9, 0.0, 2024-06-15 11:13:53.515
230.0, 79017.52937049024, 72629.0878807411, 71769.61860294564, -187500.02235174447, 108350.68474420128, -170059.9396300244, -131156.68370207355, -187500.02235174447, 0.006, 0.976, -0.106, 192.0, 0.0, 0.0, 0.0, 0.0, 0.0, 0.0, 0.0, 0.0, 0.0, 1.7184680335153227E9, 0.0, 2024-06-15 11:13:53.515
231.0, 78900.16036035542, 74211.45727771011, 73189.1778933022, -187500.02235174447, 109476.31859497054, -168972.41550355143, -130277.63429613523, -187500.02235174447, 0.006, 0.976, -0.106, 192.0, 0.0, 0.0, 0.0, 0.0, 0.0, 0.0, 0.0, 0.0, 0.0, 1.7184680335153334E9, 0.0, 2024-06-15 11:13:53.515
232.0, 78784.4453793103, 74828.11955548759, 74617.4096605074, -187500.02235174447, 111913.59751386613, -167508.51035219556, -128794.23842361433, -187500.02235174447, 0.006, 0.976, -0.106, 192.0, 0.0, 0.0, 0.0, 0.0, 0.0, 0.0, 0.0, 0.0, 0.0, 1.718468033515343E9, 0.0, 2024-06-15 11:13:53.515
233.0, 78836.16731597988, 73585.60843296153, 73584.9155288834, -187500.02235174447, 111329.52407950451, -168170.39020900612, -129283.20518531861, -187500.02235174447, 0.006, 0.976, -0.106, 192.0, 0.0, 0.0, 0.0, 0.0, 0.0, 0.0, 0.0, 0.0, 0.0, 1.7184680335153525E9, 0.0, 2024-06-15 11:13:53.515
234.0, 78995.8481783686, 72532.55069643864, 71826.12381292866, -187500.02235174447, 108602.0301106012, -169955.60168690703, -131038.15240122705, -187500.02235174447, 0.006, 0.978, -0.10400000000000001, 192.0, 0.0, 48.0, 30.0, 144.0, 252.0, 192.0, 0.0, 0.0, 0.0, 1.7184680335153625E9, 0.0, 2024-06-15 11:13:53.515
235.0, 78912.5208750392, 73910.02165198585, 72817.35662428816, -187500.02235174447, 109041.487758337, -169282.74712356893, -130573.01259911212, -187500.02235174447, 0.006, 0.978, -0.10400000000000001, 192.0, 0.0, 0.0, 0.0, 0.0, 0.0, 0.0, 0.0, 0.0, 0.0, 1.718468033515372E9, 0.0, 2024-06-15 11:13:53.515
236.0, 78785.78648397762, 74877.69572468946, 74523.93466519531, -187500.02235174447, 111651.12097872747, -167618.68210061576, -128939.21183815144, -187500.02235174447, 0.006, 0.978, -0.10400000000000001, 192.0, 0.0, 0.0, 0.0, 0.0, 0.0, 0.0, 0.0, 0.0, 0.0, 1.7184680335153813E9, 0.0, 2024-06-15 11:13:53.515
237.0, 78811.93802499033, 73882.08197141672, 73908.72525080745, -187500.02235174447, 111703.28995028615, -167877.73881885278, -129029.11055435069, -187500.02235174447, 0.006, 0.978, -0.10400000000000001, 192.0, 0.0, 0.0, 0.0, 0.0, 0.0, 0.0, 0.0, 0.0, 0.0, 1.718468033515391E9, 0.0, 2024-06-15 11:13:53.515
238.0, 78987.8909573425, 72555.61769671652, 71975.41111414565, -187500.02235174447, 108958.22751024098, -169760.89564095685, -130838.79719243017, -187500.02235174447, 0.006, 0.978, -0.10400000000000001, 192.0, 0.0, 0.0, 0.0, 0.0, 0.0, 0.0, 0.0, 0.0, 0.0, 1.718468033515402E9, 0.0, 2024-06-15 11:13:53.515
239.0, 78961.02416050722, 73625.90862821444, 72467.68593402934, -187500.02235174447, 108640.36335234206, -169638.3857295973, -130905.87477754055, -187500.02235174447, 0.006, 0.978, -0.10400000000000001, 192.0, 0.0, 0.0, 0.0, 0.0, 0.0, 0.0, 0.0, 0.0, 0.0, 1.7184680335154119E9, 0.0, 2024-06-15 11:13:53.515
240.0, 78812.38505987944, 74908.16115238205, 74396.79794273352, -187500.02235174447, 111302.43376522468, -167819.28900710214, -129167.11022461776, -187500.02235174447, 0.006, 0.978, -0.10400000000000001, 192.0, 0.0, 0.0, 0.0, 0.0, 0.0, 0.0, 0.0, 0.0, 0.0, 1.7184680335154247E9, 0.0, 2024-06-15 11:13:53.515
241.0, 78804.40548710889, 74188.47968441006, 74212.2172370216, -187500.02235174447, 111974.14838959556, -167656.34479002297, -128848.4637556629, -187500.02235174447, 0.006, 0.978, -0.10400000000000001, 192.0, 0.0, 0.0, 0.0, 0.0, 0.0, 0.0, 0.0, 0.0, 0.0, 1.718468033515437E9, 0.0, 2024-06-15 11:13:53.515
242.0, 78965.38275067601, 72676.45122724191, 72246.98480927764, -187500.02235174447, 109426.60831530194, -169450.4522622171, -130529.89608405782, -187500.02235174447, 0.006, 0.978, -0.10400000000000001, 192.0, 0.0, 0.0, 0.0, 0.0, 0.0, 0.0, 0.0, 0.0, 0.0, 1.7184680339947853E9, 0.0, 2024-06-15 11:13:53.994
243.0, 78996.20580627988, 73321.50022047761, 72178.20849158865, -187500.02235174447, 108381.66426201633, -169846.14519430939, -131081.939468615, -187500.02235174447, 0.006, 0.978, -0.10400000000000001, 192.0, 0.0, 0.0, 0.0, 0.0, 0.0, 0.0, 0.0, 0.0, 0.0, 1.7184680339949324E9, 0.0, 2024-06-15 11:13:53.994
244.0, 78855.79214761165, 74847.47616618588, 74167.53609985544, -187500.02235174447, 110880.43282990847, -168047.56737322418, -129409.82781765793, -187500.02235174447, 0.006, 0.982, -0.108, 192.0, 0.0, 48.0, 30.0, 176.0, 252.0, 160.0, 0.0, 0.0, 0.0, 1.7184680339949994E9, 0.0, 2024-06-15 11:13:53.994
245.0, 78828.70183333181, 74471.98921108118, 74427.17396344828, -187500.02235174447, 112118.80887971031, -167520.2450180346, -128746.62920792452, -187500.02235174447, 0.006, 0.982, -0.108, 192.0, 0.0, 0.0, 0.0, 0.0, 0.0, 0.0, 0.0, 0.0, 0.0, 1.7184680339950144E9, 0.0, 2024-06-15 11:13:53.995
246.0, 78980.64899213899, 72924.66734941809, 72565.56422299912, -187500.02235174447, 109929.72373124644, -169132.00695896233, -130219.11742915124, -187500.02235174447, 0.006, 0.982, -0.108, 192.0, 0.0, 0.0, 0.0, 0.0, 0.0, 0.0, 0.0, 0.0, 0.0, 1.7184680339950297E9, 0.0, 2024-06-15 11:13:53.995
247.0, 79059.08126343266, 73113.42783134316, 71958.28967789288, -187500.02235174447, 108239.32835332493, -170014.0738504021, -131217.70396443654, -187500.02235174447, 0.006, 0.982, -0.108, 192.0, 0.0, 0.0, 0.0, 0.0, 0.0, 0.0, 0.0, 0.0, 0.0, 1.7184680339950452E9, 0.0, 2024-06-15 11:13:53.995
248.0, 78925.75310775675, 74779.34804908611, 73878.12571264812, -187500.02235174447, 110385.98989081263, -168381.74830457548, -129755.69871135935, -187500.02235174447, 0.006, 0.982, -0.108, 192.0, 0.0, 0.0, 0.0, 0.0, 0.0, 0.0, 0.0, 0.0, 0.0, 1.7184680339950624E9, 0.0, 2024-06-15 11:13:53.995
249.0, 78859.43548195786, 74728.07314730564, 74587.3018607261, -187500.02235174447, 112141.965286966, -167470.19946219915, -128742.136507289, -187500.02235174447, 0.006, 0.982, -0.108, 192.0, 0.0, 0.0, 0.0, 0.0, 0.0, 0.0, 0.0, 0.0, 0.0, 1.7184680339950757E9, 0.0, 2024-06-15 11:13:53.995
250.0, 78980.64899213899, 73212.84839068036, 72931.48463147695, -187500.02235174447, 110441.6680862508, -168800.73175439023, -129912.45149522442, -187500.02235174447, 0.006, 0.982, -0.108, 192.0, 0.0, 0.0, 0.0, 0.0, 0.0, 0.0, 0.0, 0.0, 0.0, 1.7184680339950895E9, 0.0, 2024-06-15 11:13:53.995
251.0, 79110.2220547464, 72934.2115443005, 71831.10825194219, -187500.02235174447, 108216.8872018918, -170138.84128795163, -131315.17992200612, -187500.02235174447, 0.006, 0.982, -0.108, 192.0, 0.0, 0.0, 0.0, 0.0, 0.0, 0.0, 0.0, 0.0, 0.0, 1.7184680339951048E9, 0.0, 2024-06-15 11:13:53.995
252.0, 78974.8375385806, 74615.33094827305, 73557.86991809249, -187500.02235174447, 109895.65967269657, -168732.49187856817, -130105.0564771958, -187500.02235174447, 0.006, 0.982, -0.108, 192.0, 0.0, 0.0, 0.0, 0.0, 0.0, 0.0, 0.0, 0.0, 0.0, 1.7184680339951186E9, 0.0, 2024-06-15 11:13:53.995
253.0, 78865.78337738317, 74900.94153892297, 74665.6223732975, -187500.02235174447, 112076.87700711215, -167473.7310378231, -128781.900260675, -187500.02235174447, 0.006, 0.982, -0.108, 192.0, 0.0, 0.0, 0.0, 0.0, 0.0, 0.0, 0.0, 0.0, 0.0, 1.7184680339951327E9, 0.0, 2024-06-15 11:13:53.995
254.0, 78955.1903552044, 73498.21311214127, 73309.87731336085, -187500.02235174447, 110947.21984234093, -168468.76364574, -129604.51151186366, -187500.02235174447, 0.004, 0.984, -0.106, 192.0, 0.0, 32.0, 30.0, 192.0, 252.0, 176.0, 0.0, 0.0, 0.0, 1.7184680339951468E9, 0.0, 2024-06-15 11:13:53.995
255.0, 79096.45338016193, 72756.44812064744, 71807.86243770867, -187500.02235174447, 108382.20070388327, -170081.1514355125, -131227.8740081637, -187500.02235174447, 0.004, 0.984, -0.106, 192.0, 0.0, 0.0, 0.0, 0.0, 0.0, 0.0, 0.0, 0.0, 0.0, 1.7184680339951608E9, 0.0, 2024-06-15 11:13:53.995
0.0, 79008.27574828574, 74327.66399713326, 73179.29842225295, -187500.02235174447, 109423.7249402672, -169060.14610053852, -130415.94689082468, -187500.02235174447, 0.004, 0.984, -0.106, 192.0, 0.0, 0.0, 0.0, 0.0, 0.0, 0.0, 0.0, 0.0, 0.0, 1.7184680339951751E9, 0.0, 2024-06-15 11:13:53.995
1.0, 78887.03988636016, 74985.43113296403, 74650.89257370145, -187500.02235174447, 111904.72387131737, -167536.2935705535, -128873.94474434195, -187500.02235174447, 0.004, 0.984, -0.106, 192.0, 0.0, 0.0, 0.0, 0.0, 0.0, 0.0, 0.0, 0.0, 0.0, 1.7184680339951901E9, 0.0, 2024-06-15 11:13:53.995
2.0, 78939.18650617439, 73777.11817945458, 73668.9357362909, -187500.02235174447, 111399.17211522724, -168127.9889497744, -129292.07882786737, -187500.02235174447, 0.004, 0.984, -0.106, 192.0, 0.0, 0.0, 0.0, 0.0, 0.0, 0.0, 0.0, 0.0, 0.0, 1.7184680339952044E9, 0.0, 2024-06-15 11:13:53.995
3.0, 79099.00147902983, 72683.20145406741, 71883.61249966771, -187500.02235174447, 108661.57515783014, -169918.54249460011, -131046.64606412007, -187500.02235174447, 0.004, 0.984, -0.106, 192.0, 0.0, 0.0, 0.0, 0.0, 0.0, 0.0, 0.0, 0.0, 0.0, 1.7184680339952188E9, 0.0, 2024-06-15 11:13:53.995
4.0, 79041.55749577969, 74022.18270566258, 72804.54907471527, -187500.02235174447, 108978.9699290955, -169370.2765548559, -130702.8985861419, -187500.02235174447, 0.004, 0.984, -0.106, 192.0, 0.0, 0.0, 0.0, 0.0, 0.0, 0.0, 0.0, 0.0, 0.0, 1.7184680339952328E9, 0.0, 2024-06-15 11:13:53.995
5.0, 78898.23811033227, 75023.83142993825, 74550.42148237485, -187500.02235174447, 111605.79164097211, -167658.64701970186, -129028.19413282802, -187500.02235174447, 0.004, 0.984, -0.106, 192.0, 0.0, 0.0, 0.0, 0.0, 0.0, 0.0, 0.0, 0.0, 0.0, 1.7184680339952471E9, 0.0, 2024-06-15 11:13:53.995
6.0, 78927.09421242407, 74080.74427613548, 73980.67551620907, -187500.02235174447, 111712.54357249064, -167897.40835397344, -129101.59726161924, -187500.02235174447, 0.004, 0.984, -0.106, 192.0, 0.0, 0.0, 0.0, 0.0, 0.0, 0.0, 0.0, 0.0, 0.0, 1.718468033995262E9, 0.0, 2024-06-15 11:13:53.995
7.0, 79091.37953417058, 72729.4695650899, 72059.43132155316, -187500.02235174447, 109018.68897899259, -169732.6653877098, -130857.17032637243, -187500.02235174447, 0.004, 0.984, -0.106, 192.0, 0.0, 0.0, 0.0, 0.0, 0.0, 0.0, 0.0, 0.0, 0.0, 1.7184680339952765E9, 0.0, 2024-06-15 11:13:53.995
8.0, 79076.87325201908, 73714.73446067983, 72477.78892252313, -187500.02235174447, 108624.29244807869, -169653.6966745492, -130958.66959794398, -187500.02235174447, 0.006, 0.978, -0.106, 192.0, 0.0, 48.0, 30.0, 144.0, 252.0, 176.0, 0.0, 0.0, 0.0, 1.718468033995291E9, 0.0, 2024-06-15 11:13:53.995
9.0, 78934.82791600561, 75002.64197619462, 74386.04675365052, -187500.02235174447, 111239.75947377199, -167866.60765011402, -129255.3549117273, -187500.02235174447, 0.006, 0.978, -0.106, 192.0, 0.0, 0.0, 0.0, 0.0, 0.0, 0.0, 0.0, 0.0, 0.0, 1.7184680339953055E9, 0.0, 2024-06-15 11:13:53.995
10.0, 78919.58402628709, 74324.26653197606, 74258.57475502191, -187500.02235174447, 111975.44479077397, -167667.7665314396, -128907.74058195837, -187500.02235174447, 0.006, 0.978, -0.106, 192.0, 0.0, 0.0, 0.0, 0.0, 0.0, 0.0, 0.0, 0.0, 0.0, 1.71846803399532E9, 0.0, 2024-06-15 11:13:53.995
11.0, 79072.17938568347, 72814.80852542026, 72318.39863281234, -187500.02235174447, 109494.17763879034, -169409.4368111416, -130539.08265102896, -187500.02235174447, 0.006, 0.978, -0.106, 192.0, 0.0, 0.0, 0.0, 0.0, 0.0, 0.0, 0.0, 0.0, 0.0, 1.7184680339953406E9, 0.0, 2024-06-15 11:13:53.995
12.0, 79110.75849661333, 73362.76154074211, 72177.00149738808, -187500.02235174447, 108370.66720374432, -169888.25588086317, -131160.23762944195, -187500.02235174447, 0.006, 0.978, -0.106, 192.0, 0.0, 0.0, 0.0, 0.0, 0.0, 0.0, 0.0, 0.0, 0.0, 1.7184680339953578E9, 0.0, 2024-06-15 11:13:53.995
13.0, 78965.04747450918, 74885.69764920445, 74137.80827972988, -187500.02235174447, 110794.93740736693, -168143.72457787092, -129541.9266273888, -187500.02235174447, 0.006, 0.978, -0.106, 192.0, 0.0, 0.0, 0.0, 0.0, 0.0, 0.0, 0.0, 0.0, 0.0, 1.718468033995378E9, 0.0, 2024-06-15 11:13:53.995
14.0, 78924.83668623409, 74565.84418604901, 74471.94450759227, -187500.02235174447, 112110.9634174065, -167506.92337833924, -128782.63786824202, -187500.02235174447, 0.006, 0.978, -0.106, 192.0, 0.0, 0.0, 0.0, 0.0, 0.0, 0.0, 0.0, 0.0, 0.0, 1.7184680339953995E9, 0.0, 2024-06-15 11:13:53.995
15.0, 79061.24938264482, 73025.80899307836, 72652.40075020799, -187500.02235174447, 110018.88483987866, -169018.638911085, -130160.89113484517, -187500.02235174447, 0.006, 0.978, -0.106, 192.0, 0.0, 0.0, 0.0, 0.0, 0.0, 0.0, 0.0, 0.0, 0.0, 1.7184680339954104E9, 0.0, 2024-06-15 11:13:53.995
16.0, 79138.25114229336, 73098.74273523602, 71983.88242529421, -187500.02235174447, 108282.42251663478, -169965.77173063418, -131203.77882764087, -187500.02235174447, 0.006, 0.978, -0.106, 192.0, 0.0, 0.0, 0.0, 0.0, 0.0, 0.0, 0.0, 0.0, 0.0, 1.7184680339954228E9, 0.0, 2024-06-15 11:13:53.995
17.0, 79001.30200401568, 74725.48034494881, 73838.80899415124, -187500.02235174447, 110341.80049202449, -168389.10202850128, -129786.87939487452, -187500.02235174447, 0.006, 0.978, -0.106, 192.0, 0.0, 0.0, 0.0, 0.0, 0.0, 0.0, 0.0, 0.0, 0.0, 1.7184680339954436E9, 0.0, 2024-06-15 11:13:53.995
18.0, 78928.77059325822, 74771.83786294912, 74596.68959339734, -187500.02235174447, 112124.62033326869, -167420.75740346403, -128731.89940832848, -187500.02235174447, 0.006, 0.978, -0.106, 192.0, 0.0, 0.0, 0.0, 0.0, 0.0, 0.0, 0.0, 0.0, 0.0, 1.718468033995464E9, 0.0, 2024-06-15 11:13:53.995
19.0, 79043.43504231394, 73341.54973525403, 73012.26383593844, -187500.02235174447, 110520.45798545575, -168647.9575810382, -129814.30498532117, -187500.02235174447, 0.006, 0.98, -0.11, 192.0, 0.0, 48.0, 30.0, 160.0, 252.0, 144.0, 0.0, 0.0, 0.0, 1.718468033995479E9, 0.0, 2024-06-15 11:13:53.995
20.0, 79173.186918877, 72970.64488776265, 71888.32871774778, -187500.02235174447, 108299.18632497625, -170000.90867291793, -131216.56402546933, -187500.02235174447, 0.006, 0.98, -0.11, 192.0, 0.0, 0.0, 0.0, 0.0, 0.0, 0.0, 0.0, 0.0, 0.0, 1.7184680339954925E9, 0.0, 2024-06-15 11:13:53.995
21.0, 79053.403920341, 74548.07454920704, 73513.7475745377, -187500.02235174447, 109848.8774715516, -168732.02249193462, -130122.49083787095, -187500.02235174447, 0.006, 0.98, -0.11, 192.0, 0.0, 0.0, 0.0, 0.0, 0.0, 0.0, 0.0, 0.0, 0.0, 1.718468033995507E9, 0.0, 2024-06-15 11:13:53.995
22.0, 78942.5839713316, 74929.8870479926, 74643.60590500903, -187500.02235174447, 112010.22410514642, -167455.15673818073, -128795.75834223728, -187500.02235174447, 0.006, 0.98, -0.11, 192.0, 0.0, 0.0, 0.0, 0.0, 0.0, 0.0, 0.0, 0.0, 0.0, 1.718468033995529E9, 0.0, 2024-06-15 11:13:53.995
23.0, 79027.2523793283, 73671.97557353682, 73375.814959504, -187500.02235174447, 110982.78146776932, -168310.49094325196, -129508.17549326128, -187500.02235174447, 0.006, 0.98, -0.11, 192.0, 0.0, 0.0, 0.0, 0.0, 0.0, 0.0, 0.0, 0.0, 0.0, 1.7184680339955509E9, 0.0, 2024-06-15 11:13:53.995
24.0, 79175.95853518946, 72887.31758443327, 71920.29171231887, -187500.02235174447, 108508.39865307792, -169867.98284864222, -131070.02598882033, -187500.02235174447, 0.006, 0.98, -0.11, 192.0, 0.0, 0.0, 0.0, 0.0, 0.0, 0.0, 0.0, 0.0, 0.0, 1.7184680339955723E9, 0.0, 2024-06-15 11:13:53.995
25.0, 79106.24344423336, 74131.25921860448, 73132.09153796334, -187500.02235174447, 109406.75996622563, -169139.96417998843, -130471.51332754057, -187500.02235174447, 0.006, 0.98, -0.11, 192.0, 0.0, 0.0, 0.0, 0.0, 0.0, 0.0, 0.0, 0.0, 0.0, 1.7184680339956007E9, 0.0, 2024-06-15 11:13:53.995
26.0, 78997.16693129146, 74741.35008351208, 74429.02915823807, -187500.02235174447, 111610.66432126336, -167911.9816913583, -129193.46293133056, -187500.02235174447, 0.006, 0.98, -0.11, 192.0, 0.0, 0.0, 0.0, 0.0, 0.0, 0.0, 0.0, 0.0, 0.0, 1.7184680339956217E9, 0.0, 2024-06-15 11:13:53.995
27.0, 78998.70920165887, 74015.16425790361, 73564.4189792179, -187500.02235174447, 111097.49062031397, -168252.42111115708, -129466.13186194086, -187500.02235174447, 0.006, 0.98, -0.11, 192.0, 0.0, 0.0, 0.0, 0.0, 0.0, 0.0, 0.0, 0.0, 0.0, 1.7184680339956377E9, 0.0, 2024-06-15 11:13:53.995
