%OpenBCI Raw EXG Data
%Number of channels = 8
%Sample Rate = 250 Hz
%Board = OpenBCI_GUI$BoardCytonSerial
Sample Index, EXG Channel 0, EXG Channel 1, EXG Channel 2, EXG Channel 3, EXG Channel 4, EXG Channel 5, EXG Channel 6, EXG Channel 7, Accel Channel 0, Accel Channel 1, Accel Channel 2, Other, Other, Other, Other, Other, Other, Other, Analog Channel 0, Analog Channel 1, Analog Channel 2, Timestamp, Other, Timestamp (Formatted)
52.0, 75034.64967425462, 60820.37071232447, 76448.77749070854, -187500.02235174447, 109041.06307519235, -73490.72527774874, -88136.97405302216, -187500.02235174447, 0.0, 0.0, 0.0, 192.0, 0.0, 0.0, 0.0, 0.0, 0.0, 0.0, 0.0, 0.0, 0.0, 1.7184679576329832E9, 0.0, 2024-06-15 11:12:37.632
53.0, 75172.9399171996, 59973.39605967952, 75031.25220909741, -187500.02235174447, 106942.54719526139, -74566.55944187158, -89253.19781937574, -187500.02235174447, 0.064, 0.988, -0.08600000000000001, 192.0, 2.0, 0.0, 30.0, 224.0, 253.0, 80.0, 0.0, 0.0, 0.0, 1.7184679576330023E9, 0.0, 2024-06-15 11:12:37.633
54.0, 75250.70163615962, 60101.73977634189, 74972.46712117996, -187500.02235174447, 105903.59340948981, -75016.63416822364, -89797.82042477374, -187500.02235174447, 0.064, 0.988, -0.08600000000000001, 192.0, 0.0, 0.0, 0.0, 0.0, 0.0, 0.0, 0.0, 0.0, 0.0, 1.7184679576330135E9, 0.0, 2024-06-15 11:12:37.633
55.0, 75108.76805886842, 60959.30915585866, 76404.25281575356, -187500.02235174447, 107970.32510880532, -73975.80283591781, -88715.75012394787, -187500.02235174447, 0.064, 0.988, -0.08600000000000001, 192.0, 0.0, 0.0, 0.0, 0.0, 0.0, 0.0, 0.0, 0.0, 0.0, 1.718467957633024E9, 0.0, 2024-06-15 11:12:37.633
56.0, 75024.68079622755, 60918.45016699436, 76598.95886170374, -187500.02235174447, 109139.61191649579, -73477.33658282002, -88108.76615151957, -187500.02235174447, 0.064, 0.988, -0.08600000000000001, 192.0, 0.0, 0.0, 0.0, 0.0, 0.0, 0.0, 0.0, 0.0, 0.0, 1.718467957633034E9, 0.0, 2024-06-15 11:12:37.633
57.0, 75135.81366965934, 60092.50850588185, 75259.35176126382, -187500.02235174447, 107395.28177920364, -74374.33443955594, -89018.14687468373, -187500.02235174447, 0.064, 0.988, -0.08600000000000001, 192.0, 0.0, 0.0, 0.0, 0.0, 0.0, 0.0, 0.0, 0.0, 0.0, 1.718467957633044E9, 0.0, 2024-06-15 11:12:37.633
58.0, 75234.07193828488, 59969.79742882222, 74808.22650292236, -187500.02235174447, 105837.07461799082, -75065.18215718058, -89812.39376215861, -187500.02235174447, 0.064, 0.988, -0.08600000000000001, 192.0, 0.0, 0.0, 0.0, 0.0, 0.0, 0.0, 0.0, 0.0, 0.0, 1.7184679576330538E9, 0.0, 2024-06-15 11:12:37.633
59.0, 75113.99836707096, 60839.794378256134, 76183.86461542423, -187500.02235174447, 107595.28518858973, -74139.61877103076, -88873.5757915468, -187500.02235174447, 0.064, 0.988, -0.08600000000000001, 192.0, 0.0, 0.0, 0.0, 0.0, 0.0, 0.0, 0.0, 0.0, 0.0, 1.7184679576330636E9, 0.0, 2024-06-15 11:12:37.633
60.0, 75015.82950542326, 60985.483048615824, 76675.49123471872, -187500.02235174447, 109147.39032356624, -73447.11702431644, -88072.44456677968, -187500.02235174447, 0.064, 0.988, -0.08600000000000001, 192.0, 0.0, 0.0, 0.0, 0.0, 0.0, 0.0, 0.0, 0.0, 0.0, 1.718467957633073E9, 0.0, 2024-06-15 11:12:37.633
61.0, 75109.95270132455, 60227.9153737921, 75499.67771764728, -187500.02235174447, 107823.98823785642, -74169.77127430098, -88781.7101218355, -187500.02235174447, 0.064, 0.988, -0.08600000000000001, 192.0, 0.0, 0.0, 0.0, 0.0, 0.0, 0.0, 0.0, 0.0, 0.0, 1.718467957633083E9, 0.0, 2024-06-15 11:12:37.633
62.0, 75243.63848491175, 59876.81417188814, 74688.66702183093, -187500.02235174447, 105827.59747834176, -75103.35893671024, -89820.84272156272, -187500.02235174447, 0.064, 0.988, -0.08600000000000001, 192.0, 0.0, 0.0, 0.0, 0.0, 0.0, 0.0, 0.0, 0.0, 0.0, 1.718467957633093E9, 0.0, 2024-06-15 11:12:37.633
63.0, 75134.36080626975, 60699.04544342106, 75936.76608047081, -187500.02235174447, 107158.71091588866, -74358.91173588177, -89090.74534067456, -187500.02235174447, 0.066, 0.986, -0.084, 192.0, 2.0, 16.0, 30.0, 208.0, 253.0, 96.0, 0.0, 0.0, 0.0, 1.7184679576331031E9, 0.0, 2024-06-15 11:12:37.633
64.0, 75006.59823496321, 61024.59860141261, 76713.28803459264, -187500.02235174447, 109047.45567410656, -73466.56304199256, -88092.11410190036, -187500.02235174447, 0.066, 0.986, -0.084, 192.0, 0.0, 0.0, 0.0, 0.0, 0.0, 0.0, 0.0, 0.0, 0.0, 1.718467957633113E9, 0.0, 2024-06-15 11:12:37.633
65.0, 75085.63400335718, 60385.89750360221, 75756.18633701639, -187500.02235174447, 108212.50625997857, -73974.59584171722, -88562.99830234032, -187500.02235174447, 0.066, 0.986, -0.084, 192.0, 0.0, 0.0, 0.0, 0.0, 0.0, 0.0, 0.0, 0.0, 0.0, 1.7184679576331227E9, 0.0, 2024-06-15 11:12:37.633
66.0, 75253.13797630525, 59847.04164827367, 74666.60585005353, -187500.02235174447, 105936.83045349485, -75087.26568070242, -89778.441462331, -187500.02235174447, 0.066, 0.986, -0.084, 192.0, 0.0, 0.0, 0.0, 0.0, 0.0, 0.0, 0.0, 0.0, 0.0, 1.7184679576331332E9, 0.0, 2024-06-15 11:12:37.633
67.0, 75191.51421684197, 60569.874712213845, 75678.29050758964, -187500.02235174447, 106713.12889017211, -74624.13753558845, -89358.83216367153, -187500.02235174447, 0.066, 0.986, -0.084, 192.0, 0.0, 0.0, 0.0, 0.0, 0.0, 0.0, 0.0, 0.0, 0.0, 1.7184679576331427E9, 0.0, 2024-06-15 11:12:37.633
68.0, 75040.79640397982, 61069.07857287867, 76722.72047075277, -187500.02235174447, 108845.61942167515, -73593.69976445434, -88229.6220337894, -187500.02235174447, 0.066, 0.986, -0.084, 192.0, 0.0, 0.0, 0.0, 0.0, 0.0, 0.0, 0.0, 0.0, 0.0, 1.7184679576331527E9, 0.0, 2024-06-15 11:12:37.633
69.0, 75058.11900593269, 60543.67846771223, 76029.03408158233, -187500.02235174447, 108556.85723505703, -73827.02962482329, -88398.55651838261, -187500.02235174447, 0.066, 0.986, -0.084, 192.0, 0.0, 0.0, 0.0, 0.0, 0.0, 0.0, 0.0, 0.0, 0.0, 1.7184679576331625E9, 0.0, 2024-06-15 11:12:37.633
70.0, 75213.93301653065, 59839.687924347876, 74723.44633620339, -187500.02235174447, 106186.79001173854, -74991.75667664489, -89650.54478055773, -187500.02235174447, 0.066, 0.986, -0.084, 192.0, 0.0, 0.0, 0.0, 0.0, 0.0, 0.0, 0.0, 0.0, 0.0, 1.7184679576331725E9, 0.0, 2024-06-15 11:12:37.633
71.0, 75188.45202785158, 60391.48543971604, 75408.88493166983, -187500.02235174447, 106349.17543520636, -74815.40141289252, -89540.86477051555, -187500.02235174447, 0.066, 0.986, -0.084, 192.0, 0.0, 0.0, 0.0, 0.0, 0.0, 0.0, 0.0, 0.0, 0.0, 1.7184679576331823E9, 0.0, 2024-06-15 11:12:37.633
72.0, 75043.43390982556, 61044.71517142239, 76658.28039148812, -187500.02235174447, 108598.632645444, -73701.61398668456, -88343.68298574483, -187500.02235174447, 0.066, 0.986, -0.084, 192.0, 0.0, 0.0, 0.0, 0.0, 0.0, 0.0, 0.0, 0.0, 0.0, 1.718467957633192E9, 0.0, 2024-06-15 11:12:37.633
73.0, 75052.82164249678, 60681.05228913454, 76263.72739836304, -187500.02235174447, 108837.8857180936, -73683.21850099784, -88240.48498159468, -187500.02235174447, 0.066, 0.986, -0.084, 192.0, 0.0, 0.0, 0.0, 0.0, 0.0, 0.0, 0.0, 0.0, 0.0, 1.718467957633202E9, 0.0, 2024-06-15 11:12:37.633
74.0, 75237.6035139088, 59898.249494820775, 74853.95817207792, -187500.02235174447, 106515.02537906473, -74885.31766954872, -89511.15930213443, -187500.02235174447, 0.06, 0.988, -0.08600000000000001, 192.0, 1.0, 224.0, 30.0, 224.0, 253.0, 80.0, 0.0, 0.0, 0.0, 1.718467957633216E9, 0.0, 2024-06-15 11:12:37.633
75.0, 75255.17198505068, 60249.887138591665, 75175.37625734524, -187500.02235174447, 106045.61639375883, -75035.34257833274, -89752.78165969631, -187500.02235174447, 0.06, 0.988, -0.08600000000000001, 192.0, 0.0, 0.0, 0.0, 0.0, 0.0, 0.0, 0.0, 0.0, 0.0, 1.718467957633226E9, 0.0, 2024-06-15 11:12:37.633
76.0, 75077.34150616426, 61016.5519734087, 76563.28547755307, -187500.02235174447, 108291.98906326164, -73876.67284925852, -88534.56688339316, -187500.02235174447, 0.06, 0.988, -0.08600000000000001, 192.0, 0.0, 0.0, 0.0, 0.0, 0.0, 0.0, 0.0, 0.0, 0.0, 1.7184679576332357E9, 0.0, 2024-06-15 11:12:37.633
77.0, 75034.38145332116, 60804.43391852784, 76454.61129601137, -187500.02235174447, 109020.23124936, -73613.16813387492, -88173.87678311787, -187500.02235174447, 0.06, 0.988, -0.08600000000000001, 192.0, 0.0, 0.0, 0.0, 0.0, 0.0, 0.0, 0.0, 0.0, 0.0, 1.7184679576332457E9, 0.0, 2024-06-15 11:12:37.633
78.0, 75164.17803337313, 59969.842132311125, 75043.74683424793, -187500.02235174447, 106961.05443967038, -74658.11218716051, -89260.23861887916, -187500.02235174447, 0.06, 0.988, -0.08600000000000001, 192.0, 0.0, 0.0, 0.0, 0.0, 0.0, 0.0, 0.0, 0.0, 0.0, 1.7184679576332555E9, 0.0, 2024-06-15 11:12:37.633
79.0, 75233.49079292903, 60084.59598834467, 74949.22130694643, -187500.02235174447, 105885.4437929921, -75104.49887567745, -89806.96228825596, -187500.02235174447, 0.06, 0.988, -0.08600000000000001, 192.0, 0.0, 0.0, 0.0, 0.0, 0.0, 0.0, 0.0, 0.0, 0.0, 1.718467957633266E9, 0.0, 2024-06-15 11:12:37.633
80.0, 75084.15878822313, 60938.8349579376, 76379.10710324135, -187500.02235174447, 107943.99475383697, -74024.32847313028, -88691.07379806922, -187500.02235174447, 0.06, 0.988, -0.08600000000000001, 192.0, 0.0, 0.0, 0.0, 0.0, 0.0, 0.0, 0.0, 0.0, 0.0, 1.7184679576332757E9, 0.0, 2024-06-15 11:12:37.633
81.0, 75018.98110139146, 60923.881640896994, 76604.41268735084, -187500.02235174447, 109142.53999501944, -73508.89724599091, -88069.85176442287, -187500.02235174447, 0.06, 0.988, -0.08600000000000001, 192.0, 0.0, 0.0, 0.0, 0.0, 0.0, 0.0, 0.0, 0.0, 0.0, 1.7184679576332855E9, 0.0, 2024-06-15 11:12:37.633
82.0, 75150.87874542222, 60115.37434045963, 75290.95712792363, -187500.02235174447, 107420.78511962714, -74423.59768433544, -88996.53273779545, -187500.02235174447, 0.06, 0.988, -0.08600000000000001, 192.0, 0.0, 0.0, 0.0, 0.0, 0.0, 0.0, 0.0, 0.0, 0.0, 1.7184679576332955E9, 0.0, 2024-06-15 11:12:37.633
83.0, 75259.53057521947, 59984.39311795153, 74817.72599431587, -187500.02235174447, 105818.56737358181, -75145.82725117532, -89827.25767222139, -187500.02235174447, 0.06, 0.988, -0.08600000000000001, 192.0, 0.0, 0.0, 0.0, 0.0, 0.0, 0.0, 0.0, 0.0, 0.0, 1.7184679576333053E9, 0.0, 2024-06-15 11:12:37.633
84.0, 75130.13632656769, 60848.22098591578, 76188.84905443777, -187500.02235174447, 107545.30668798766, -74221.51556271501, -88896.77690229141, -187500.02235174447, 0.06, 0.99, -0.09, 192.0, 1.0, 224.0, 30.0, 240.0, 253.0, 48.0, 0.0, 0.0, 0.0, 1.718467957633315E9, 0.0, 2024-06-15 11:12:37.633
85.0, 75026.98302590645, 61001.93393253493, 76700.10050536401, -187500.02235174447, 109129.88890765773, -73511.57945532554, -88078.81481394944, -187500.02235174447, 0.06, 0.99, -0.09, 192.0, 0.0, 0.0, 0.0, 0.0, 0.0, 0.0, 0.0, 0.0, 0.0, 1.7184679576333256E9, 0.0, 2024-06-15 11:12:37.633
86.0, 75117.64170141717, 60255.87740610569, 75545.4764420362, -187500.02235174447, 107859.77338072937, -74224.93537961667, -88776.12218572166, -187500.02235174447, 0.06, 0.99, -0.09, 192.0, 0.0, 0.0, 0.0, 0.0, 0.0, 0.0, 0.0, 0.0, 0.0, 1.7184679576333354E9, 0.0, 2024-06-15 11:12:37.633
87.0, 75249.33817974785, 59893.13094534051, 74709.05181277417, -187500.02235174447, 105842.10376049326, -75177.87965272422, -89837.22655024845, -187500.02235174447, 0.06, 0.99, -0.09, 192.0, 0.0, 0.0, 0.0, 0.0, 0.0, 0.0, 0.0, 0.0, 0.0, 1.7184679576333454E9, 0.0, 2024-06-15 11:12:37.633
88.0, 75145.20140233057, 60710.48953658218, 75928.0712518777, -187500.02235174447, 107129.09485448539, -74440.9202862883, -89119.42262881073, -187500.02235174447, 0.06, 0.99, -0.09, 192.0, 0.0, 0.0, 0.0, 0.0, 0.0, 0.0, 0.0, 0.0, 0.0, 1.7184679576333551E9, 0.0, 2024-06-15 11:12:37.633
89.0, 75028.63705499614, 61051.42069475898, 76726.58732254355, -187500.02235174447, 109035.56454605634, -73544.59298188603, -88119.27147141355, -187500.02235174447, 0.06, 0.99, -0.09, 192.0, 0.0, 0.0, 0.0, 0.0, 0.0, 0.0, 0.0, 0.0, 0.0, 1.7184679576333659E9, 0.0, 2024-06-15 11:12:37.633
90.0, 75086.88570104667, 60411.64671321472, 75805.74015447381, -187500.02235174447, 108281.79666779003, -74001.6638042526, -88530.81179032467, -187500.02235174447, 0.06, 0.99, -0.09, 192.0, 0.0, 0.0, 0.0, 0.0, 0.0, 0.0, 0.0, 0.0, 0.0, 1.718467957633376E9, 0.0, 2024-06-15 11:12:37.633
91.0, 75252.35566524931, 59858.262223990234, 74682.74380955027, -187500.02235174447, 105995.3696722233, -75132.66207369114, -89757.69904347647, -187500.02235174447, 0.06, 0.99, -0.09, 192.0, 0.0, 0.0, 0.0, 0.0, 0.0, 0.0, 0.0, 0.0, 0.0, 1.7184679576333876E9, 0.0, 2024-06-15 11:12:37.633
92.0, 75183.46758883806, 60567.05839241247, 75658.9562486358, -187500.02235174447, 106706.2892563688, -74690.00812649824, -89363.92836140734, -187500.02235174447, 0.06, 0.99, -0.09, 192.0, 0.0, 0.0, 0.0, 0.0, 0.0, 0.0, 0.0, 0.0, 0.0, 1.718467957633398E9, 0.0, 2024-06-15 11:12:37.633
93.0, 75028.77116546288, 61074.487695036856, 76715.29969159361, -187500.02235174447, 108842.9372123405, -73634.26818064072, -88215.31691733802, -187500.02235174447, 0.06, 0.99, -0.09, 192.0, 0.0, 0.0, 0.0, 0.0, 0.0, 0.0, 0.0, 0.0, 0.0, 1.718467957633414E9, 0.0, 2024-06-15 11:12:37.633
94.0, 75068.13258744868, 60567.95246219069, 76048.68126495853, -187500.02235174447, 108587.21090402734, -73883.60189003967, -88398.15418698243, -187500.02235174447, 0.058, 0.99, -0.08600000000000001, 192.0, 1.0, 208.0, 30.0, 240.0, 253.0, 80.0, 0.0, 0.0, 0.0, 1.7184679576334257E9, 0.0, 2024-06-15 11:12:37.633
95.0, 75225.37710969176, 59856.585843156085, 74751.47542375034, -187500.02235174447, 106256.48275095019, -75036.16959287759, -89630.6517279925, -187500.02235174447, 0.058, 0.99, -0.08600000000000001, 192.0, 0.0, 0.0, 0.0, 0.0, 0.0, 0.0, 0.0, 0.0, 0.0, 1.7184679576334383E9, 0.0, 2024-06-15 11:12:37.633
96.0, 75209.88735078424, 60395.173477551165, 75381.95107960119, -187500.02235174447, 106345.66621132687, -74892.4702277744, -89561.3836719255, -187500.02235174447, 0.058, 0.99, -0.08600000000000001, 192.0, 0.0, 0.0, 0.0, 0.0, 0.0, 0.0, 0.0, 0.0, 0.0, 1.7184679576334505E9, 0.0, 2024-06-15 11:12:37.633
97.0, 75062.7681687794, 61072.5654450137, 76643.75175759218, -187500.02235174447, 108579.54425567917, -73779.39805738903, -88376.3612361385, -187500.02235174447, 0.058, 0.99, -0.08600000000000001, 192.0, 0.0, 0.0, 0.0, 0.0, 0.0, 0.0, 0.0, 0.0, 0.0, 1.7184679576334603E9, 0.0, 2024-06-15 11:12:37.633
98.0, 75055.6156105537, 60718.156184930354, 76287.71082016359, -187500.02235174447, 108870.943948143, -73744.12700463856, -88253.31488291203, -187500.02235174447, 0.058, 0.99, -0.08600000000000001, 192.0, 0.0, 0.0, 0.0, 0.0, 0.0, 0.0, 0.0, 0.0, 0.0, 1.7184679576334703E9, 0.0, 2024-06-15 11:12:37.633
99.0, 75202.86890302526, 59909.2912565817, 74897.09703887666, -187500.02235174447, 106620.90559254952, -74889.89977716205, -89455.79403111864, -187500.02235174447, 0.058, 0.99, -0.08600000000000001, 192.0, 0.0, 0.0, 0.0, 0.0, 0.0, 0.0, 0.0, 0.0, 0.0, 1.7184679576334803E9, 0.0, 2024-06-15 11:12:37.633
100.0, 75223.58897013533, 60235.89494656264, 75159.77473971543, -187500.02235174447, 106083.8378767774, -75053.51454657491, -89708.05581904124, -187500.02235174447, 0.058, 0.99, -0.08600000000000001, 192.0, 0.0, 0.0, 0.0, 0.0, 0.0, 0.0, 0.0, 0.0, 0.0, 1.7184679576334906E9, 0.0, 2024-06-15 11:12:37.633
101.0, 75071.08301771677, 61030.588868926636, 76538.8103173745, -187500.02235174447, 108270.30787114, -73923.27623644784, -88524.39683966599, -187500.02235174447, 0.058, 0.99, -0.08600000000000001, 192.0, 0.0, 0.0, 0.0, 0.0, 0.0, 0.0, 0.0, 0.0, 0.0, 1.7184679576335015E9, 0.0, 2024-06-15 11:12:37.633
102.0, 75028.56999976278, 60844.35413412502, 76482.41686611377, -187500.02235174447, 109051.50133985297, -73642.71714004483, -88144.14896299232, -187500.02235174447, 0.058, 0.99, -0.08600000000000001, 192.0, 0.0, 0.0, 0.0, 0.0, 0.0, 0.0, 0.0, 0.0, 0.0, 1.718467957633512E9, 0.0, 2024-06-15 11:12:37.633
103.0, 75175.71153351206, 59991.232751754855, 75081.25306144393, -187500.02235174447, 107023.34875146732, -74717.61253090054, -89250.22503736318, -187500.02235174447, 0.058, 0.99, -0.08600000000000001, 192.0, 0.0, 0.0, 0.0, 0.0, 0.0, 0.0, 0.0, 0.0, 0.0, 1.7184679576335218E9, 0.0, 2024-06-15 11:12:37.633
104.0, 75237.29058948644, 60073.1295434391, 74936.86079226265, -187500.02235174447, 105889.95884537206, -75192.85532150928, -89825.53658789833, -187500.02235174447, 0.064, 0.986, -0.08, 192.0, 2.0, 0.0, 30.0, 208.0, 253.0, 128.0, 0.0, 0.0, 0.0, 1.718467957633532E9, 0.0, 2024-06-15 11:12:37.633
105.0, 75086.17044522411, 60947.328620830616, 76345.40067260274, -187500.02235174447, 107899.26891318189, -74094.51295071995, -88705.24480405389, -187500.02235174447, 0.064, 0.986, -0.08, 192.0, 0.0, 0.0, 0.0, 0.0, 0.0, 0.0, 0.0, 0.0, 0.0, 1.718467957633542E9, 0.0, 2024-06-15 11:12:37.633
106.0, 75011.38150827665, 60968.96510946335, 76603.51861757263, -187500.02235174447, 109138.62843973977, -73524.76698455417, -88043.09672630987, -187500.02235174447, 0.064, 0.986, -0.08, 192.0, 0.0, 0.0, 0.0, 0.0, 0.0, 0.0, 0.0, 0.0, 0.0, 1.718467957633552E9, 0.0, 2024-06-15 11:12:37.633
107.0, 75145.58138198631, 60087.8816947796, 75374.50794869756, -187500.02235174447, 107574.05103135719, -74438.93098103178, -88932.20441725307, -187500.02235174447, 0.064, 0.986, -0.08, 192.0, 0.0, 0.0, 0.0, 0.0, 0.0, 0.0, 0.0, 0.0, 0.0, 1.7184679576335616E9, 0.0, 2024-06-15 11:12:37.633
108.0, 75268.18070032368, 59802.136993662956, 74766.16051985747, -187500.02235174447, 105873.75383064197, -75356.0901112664, -89901.89014695767, -187500.02235174447, 0.064, 0.986, -0.08, 192.0, 0.0, 0.0, 0.0, 0.0, 0.0, 0.0, 0.0, 0.0, 0.0, 1.7184679576335719E9, 0.0, 2024-06-15 11:12:37.633
109.0, 75116.0323758164, 60889.79523060266, 75964.16931917302, -187500.02235174447, 107283.61246390492, -74337.36465422687, -88975.499746263, -187500.02235174447, 0.064, 0.986, -0.08, 192.0, 0.0, 0.0, 0.0, 0.0, 0.0, 0.0, 0.0, 0.0, 0.0, 1.7184679576335816E9, 0.0, 2024-06-15 11:12:37.633
110.0, 75018.24349382443, 61240.94113599553, 76725.69325276533, -187500.02235174447, 109050.9872497305, -73380.19590141725, -87977.94139122264, -187500.02235174447, 0.064, 0.986, -0.08, 192.0, 0.0, 0.0, 0.0, 0.0, 0.0, 0.0, 0.0, 0.0, 0.0, 1.718467957633592E9, 0.0, 2024-06-15 11:12:37.633
111.0, 75123.18493404209, 60262.78409514238, 75794.0948956126, -187500.02235174447, 108178.39749793978, -74135.12607039524, -88614.7202390099, -187500.02235174447, 0.064, 0.986, -0.08, 192.0, 0.0, 0.0, 0.0, 0.0, 0.0, 0.0, 0.0, 0.0, 0.0, 1.718467957633602E9, 0.0, 2024-06-15 11:12:37.633
112.0, 75263.28566828796, 59588.54372364804, 74704.40264992746, -187500.02235174447, 106033.4793965196, -75426.8557342119, -89897.12922538868, -187500.02235174447, 0.064, 0.986, -0.08, 192.0, 0.0, 0.0, 0.0, 0.0, 0.0, 0.0, 0.0, 0.0, 0.0, 1.7184679576336129E9, 0.0, 2024-06-15 11:12:37.633
113.0, 75140.82046041734, 60708.075548181005, 75599.5453118736, -187500.02235174447, 106772.07044030077, -74659.76621625021, -89281.15985168933, -187500.02235174447, 0.064, 0.986, -0.08, 192.0, 0.0, 0.0, 0.0, 0.0, 0.0, 0.0, 0.0, 0.0, 0.0, 1.7184679576336253E9, 0.0, 2024-06-15 11:12:37.633
114.0, 75009.03457510885, 61355.583233306796, 76726.47556382127, -187500.02235174447, 108872.10623885469, -73399.1278289709, -88022.95780455564, -187500.02235174447, 0.064, 0.986, -0.08, 192.0, 0.0, 0.0, 0.0, 0.0, 0.0, 0.0, 0.0, 0.0, 0.0, 1.718467957633636E9, 0.0, 2024-06-15 11:12:37.633
115.0, 75088.96441328102, 60473.15871395573, 76094.12236143618, -187500.02235174447, 108590.78718314019, -73895.78359076782, -88368.94045697934, -187500.02235174447, 0.066, 0.988, -0.08, 192.0, 2.0, 16.0, 30.0, 224.0, 253.0, 128.0, 0.0, 0.0, 0.0, 1.7184679576336465E9, 0.0, 2024-06-15 11:12:37.633
116.0, 75251.28278151546, 59533.759597988086, 74751.47542375034, -187500.02235174447, 106259.16496028483, -75393.21635880666, -89818.8534163062, -187500.02235174447, 0.066, 0.988, -0.08, 192.0, 0.0, 0.0, 0.0, 0.0, 0.0, 0.0, 0.0, 0.0, 0.0, 1.7184679576336615E9, 0.0, 2024-06-15 11:12:37.633
117.0, 75135.54544872588, 60465.849693518845, 75324.39533762877, -187500.02235174447, 106422.77972969768, -74909.59166402718, -89489.36635129052, -187500.02235174447, 0.066, 0.988, -0.08, 192.0, 0.0, 0.0, 0.0, 0.0, 0.0, 0.0, 0.0, 0.0, 0.0, 1.7184679576336722E9, 0.0, 2024-06-15 11:12:37.633
118.0, 74997.45637148099, 61355.71734377353, 76624.21633293825, -187500.02235174447, 108616.60344798607, -73512.51822859267, -88134.94004427672, -187500.02235174447, 0.066, 0.988, -0.08, 192.0, 0.0, 0.0, 0.0, 0.0, 0.0, 0.0, 0.0, 0.0, 0.0, 1.7184679576336827E9, 0.0, 2024-06-15 11:12:37.633
119.0, 75038.20360162301, 60692.96576892922, 76328.94978868363, -187500.02235174447, 108901.02939617985, -73640.21374466583, -88118.46680861317, -187500.02235174447, 0.066, 0.988, -0.08, 192.0, 0.0, 0.0, 0.0, 0.0, 0.0, 0.0, 0.0, 0.0, 0.0, 1.7184679576336927E9, 0.0, 2024-06-15 11:12:37.633
120.0, 75220.39267067822, 59570.19294145024, 74881.49552124686, -187500.02235174447, 106632.55085141074, -75157.42780654762, -89552.19710495438, -187500.02235174447, 0.066, 0.988, -0.08, 192.0, 0.0, 0.0, 0.0, 0.0, 0.0, 0.0, 0.0, 0.0, 0.0, 1.7184679576337025E9, 0.0, 2024-06-15 11:12:37.633
121.0, 75184.83104524983, 60248.63544090217, 75064.10927344672, -187500.02235174447, 106133.86108086837, -75147.34716979827, -89684.1171007296, -187500.02235174447, 0.066, 0.988, -0.08, 192.0, 0.0, 0.0, 0.0, 0.0, 0.0, 0.0, 0.0, 0.0, 0.0, 1.7184679576337135E9, 0.0, 2024-06-15 11:12:37.633
122.0, 75014.13077284466, 61341.21106162204, 76499.8065233, -187500.02235174447, 108318.74410137464, -73667.48287290131, -88285.07671178303, -187500.02235174447, 0.066, 0.988, -0.08, 192.0, 0.0, 0.0, 0.0, 0.0, 0.0, 0.0, 0.0, 0.0, 0.0, 1.7184679576337237E9, 0.0, 2024-06-15 11:12:37.633
123.0, 75028.39118580714, 60906.6260941775, 76524.23697998966, -187500.02235174447, 109094.52844792945, -73508.94194947982, -87995.26399317551, -187500.02235174447, 0.066, 0.988, -0.08, 192.0, 0.0, 0.0, 0.0, 0.0, 0.0, 0.0, 0.0, 0.0, 0.0, 1.7184679576337347E9, 0.0, 2024-06-15 11:12:37.633
124.0, 75209.7979438064, 59668.94294845378, 75085.11991323471, -187500.02235174447, 107035.82102487338, -74974.27761248084, -89344.81761989804, -187500.02235174447, 0.066, 0.988, -0.08, 192.0, 0.0, 0.0, 0.0, 0.0, 0.0, 0.0, 0.0, 0.0, 0.0, 1.7184679576337452E9, 0.0, 2024-06-15 11:12:37.633
125.0, 75226.15942074769, 60023.84394691515, 74867.41392224001, -187500.02235174447, 105937.61276455078, -75372.36218122985, -89859.01950109238, -187500.02235174447, 0.066, 0.988, -0.08, 192.0, 2.0, 16.0, 30.0, 224.0, 253.0, 128.0, 0.0, 0.0, 0.0, 1.7184679576337552E9, 0.0, 2024-06-15 11:12:37.633
126.0, 75040.28231385736, 61264.96926128498, 76323.20539035862, -187500.02235174447, 107956.55643422085, -73884.51831156234, -88490.77981600522, -187500.02235174447, 0.066, 0.988, -0.08, 192.0, 0.0, 0.0, 0.0, 0.0, 0.0, 0.0, 0.0, 0.0, 0.0, 1.7184679576337664E9, 0.0, 2024-06-15 11:12:37.633
127.0, 75010.5097902429, 61079.13685788356, 76669.18804278232, -187500.02235174447, 109201.10156549235, -73391.23766317817, -87888.02032327895, -187500.02235174447, 0.066, 0.988, -0.08, 192.0, 0.0, 0.0, 0.0, 0.0, 0.0, 0.0, 0.0, 0.0, 0.0, 1.718467957633783E9, 0.0, 2024-06-15 11:12:37.633
128.0, 75174.68335326712, 59819.03491247117, 75320.37202362681, -187500.02235174447, 107458.67132647889, -74727.5367054387, -89090.275954041, -187500.02235174447, 0.066, 0.988, -0.08, 192.0, 0.0, 0.0, 0.0, 0.0, 0.0, 0.0, 0.0, 0.0, 0.0, 1.718467957633803E9, 0.0, 2024-06-15 11:12:37.633
129.0, 75233.20022025112, 59815.39157812495, 74724.65333040396, -187500.02235174447, 105855.9841938, -75485.64082212935, -89930.72389730501, -187500.02235174447, 0.066, 0.988, -0.08, 192.0, 0.0, 0.0, 0.0, 0.0, 0.0, 0.0, 0.0, 0.0, 0.0, 1.718467957633823E9, 0.0, 2024-06-15 11:12:37.633
130.0, 75064.22103216899, 61133.205727720946, 76088.98146021145, -187500.02235174447, 107554.76147589226, -74116.1941428416, -88715.90658615906, -187500.02235174447, 0.066, 0.988, -0.08, 192.0, 0.0, 0.0, 0.0, 0.0, 0.0, 0.0, 0.0, 0.0, 0.0, 1.7184679576338334E9, 0.0, 2024-06-15 11:12:37.633
131.0, 74999.78095290434, 61204.239571599916, 76760.29375318215, -187500.02235174447, 109227.65543790525, -73313.14066805133, -87825.18956961508, -187500.02235174447, 0.066, 0.988, -0.08, 192.0, 0.0, 0.0, 0.0, 0.0, 0.0, 0.0, 0.0, 0.0, 0.0, 1.7184679576338437E9, 0.0, 2024-06-15 11:12:37.633
132.0, 75157.56191701436, 59991.83624885515, 75590.82813153602, -187500.02235174447, 107931.61188740873, -74445.21182122373, -88796.97636329847, -187500.02235174447, 0.066, 0.988, -0.08, 192.0, 0.0, 0.0, 0.0, 0.0, 0.0, 0.0, 0.0, 0.0, 0.0, 1.7184679576338537E9, 0.0, 2024-06-15 11:12:37.633
133.0, 75249.00290358101, 59641.13737835138, 74641.25897184122, -187500.02235174447, 105906.43208103563, -75535.37345354242, -89925.91827224712, -187500.02235174447, 0.066, 0.988, -0.08, 192.0, 0.0, 0.0, 0.0, 0.0, 0.0, 0.0, 0.0, 0.0, 0.0, 1.718467957633868E9, 0.0, 2024-06-15 11:12:37.633
134.0, 75080.15782596562, 60966.618176295546, 75824.20269539389, -187500.02235174447, 107153.03357279702, -74351.37919800034, -88924.0460305269, -187500.02235174447, 0.066, 0.988, -0.08, 192.0, 0.0, 0.0, 0.0, 0.0, 0.0, 0.0, 0.0, 0.0, 0.0, 1.718467957633878E9, 0.0, 2024-06-15 11:12:37.633
135.0, 74998.84217963721, 61321.809747434825, 76785.01478254971, -187500.02235174447, 109120.27765754196, -73315.84522913041, -87837.77360174342, -187500.02235174447, 0.06, 0.986, -0.088, 192.0, 1.0, 224.0, 30.0, 208.0, 253.0, 64.0, 0.0, 0.0, 0.0, 1.718467957633888E9, 0.0, 2024-06-15 11:12:37.633
136.0, 75116.70292815006, 60216.18070795306, 75867.92270754847, -187500.02235174447, 108335.28439227157, -74158.48364335104, -88508.72826680282, -187500.02235174447, 0.06, 0.986, -0.088, 192.0, 0.0, 0.0, 0.0, 0.0, 0.0, 0.0, 0.0, 0.0, 0.0, 1.7184679576338975E9, 0.0, 2024-06-15 11:12:37.633
137.0, 75254.52378446147, 59524.77419671705, 74635.13459386046, -187500.02235174447, 106035.80397794295, -75519.0790318345, -89866.23911455144, -187500.02235174447, 0.06, 0.986, -0.088, 192.0, 0.0, 0.0, 0.0, 0.0, 0.0, 0.0, 0.0, 0.0, 0.0, 1.7184679576339076E9, 0.0, 2024-06-15 11:12:37.633
138.0, 75129.9798643565, 60745.425313165826, 75528.39970927236, -187500.02235174447, 106697.52737254232, -74668.63985879897, -89212.76351365609, -187500.02235174447, 0.06, 0.986, -0.088, 192.0, 0.0, 0.0, 0.0, 0.0, 0.0, 0.0, 0.0, 0.0, 0.0, 1.7184679576339211E9, 0.0, 2024-06-15 11:12:37.633
139.0, 75012.49909549941, 61382.80765805336, 76751.0624827221, -187500.02235174447, 108893.72037574297, -73403.62052960641, -87942.8044489389, -187500.02235174447, 0.06, 0.986, -0.088, 192.0, 0.0, 0.0, 0.0, 0.0, 0.0, 0.0, 0.0, 0.0, 0.0, 1.7184679576339312E9, 0.0, 2024-06-15 11:12:37.633
140.0, 75089.61261387022, 60452.282184634474, 76144.30202773835, -187500.02235174447, 108689.89481805502, -73910.4463351305, -88275.75603434516, -187500.02235174447, 0.06, 0.986, -0.088, 192.0, 0.0, 0.0, 0.0, 0.0, 0.0, 0.0, 0.0, 0.0, 0.0, 1.7184679576339412E9, 0.0, 2024-06-15 11:12:37.633
141.0, 75263.21861305459, 59489.52549571103, 74719.31126347915, -187500.02235174447, 106292.2902455676, -75444.9606472207, -89756.55910450926, -187500.02235174447, 0.06, 0.986, -0.088, 192.0, 0.0, 0.0, 0.0, 0.0, 0.0, 0.0, 0.0, 0.0, 0.0, 1.7184679576339517E9, 0.0, 2024-06-15 11:12:37.633
142.0, 75166.72613224103, 60504.361749215335, 75267.80072066793, -187500.02235174447, 106349.01897299517, -74956.61973436114, -89456.12930728548, -187500.02235174447, 0.06, 0.986, -0.088, 192.0, 0.0, 0.0, 0.0, 0.0, 0.0, 0.0, 0.0, 0.0, 0.0, 1.7184679576339614E9, 0.0, 2024-06-15 11:12:37.633
143.0, 75024.14435436063, 61400.37612919523, 76659.42033045535, -187500.02235174447, 108631.95909642686, -73518.24027517323, -88058.36296777285, -187500.02235174447, 0.06, 0.986, -0.088, 192.0, 0.0, 0.0, 0.0, 0.0, 0.0, 0.0, 0.0, 0.0, 0.0, 1.718467957633971E9, 0.0, 2024-06-15 11:12:37.633
144.0, 75078.9731835095, 60681.87930367939, 76367.19362344667, -187500.02235174447, 108961.73673412047, -73698.03770757171, -88072.51162201306, -187500.02235174447, 0.06, 0.986, -0.088, 192.0, 0.0, 0.0, 0.0, 0.0, 0.0, 0.0, 0.0, 0.0, 0.0, 1.7184679576339808E9, 0.0, 2024-06-15 11:12:37.633
145.0, 75272.1146073478, 59525.780025217544, 74864.5752506942, -187500.02235174447, 106629.80158684273, -75291.6723837462, -89575.66643663245, -187500.02235174447, 0.054, 0.984, -0.082, 192.0, 1.0, 176.0, 30.0, 192.0, 253.0, 112.0, 0.0, 0.0, 0.0, 1.7184679576339908E9, 0.0, 2024-06-15 11:12:37.633
146.0, 75212.86013279679, 60245.282679233875, 75016.74592694592, -187500.02235174447, 106058.15572239825, -75217.86692355477, -89669.74492904484, -187500.02235174447, 0.054, 0.984, -0.082, 192.0, 0.0, 0.0, 0.0, 0.0, 0.0, 0.0, 0.0, 0.0, 0.0, 1.7184679576340013E9, 0.0, 2024-06-15 11:12:37.634
147.0, 75052.41931109659, 61359.31597463084, 76500.05239248901, -187500.02235174447, 108271.58192057395, -73715.98615836933, -88255.66181607984, -187500.02235174447, 0.054, 0.984, -0.082, 192.0, 0.0, 0.0, 0.0, 0.0, 0.0, 0.0, 0.0, 0.0, 0.0, 1.718467957634011E9, 0.0, 2024-06-15 11:12:37.634
148.0, 75065.49508160294, 60887.91768406841, 76563.53134674208, -187500.02235174447, 109118.1542418187, -73560.23920300475, -87949.3535100643, -187500.02235174447, 0.054, 0.984, -0.082, 192.0, 0.0, 0.0, 0.0, 0.0, 0.0, 0.0, 0.0, 0.0, 0.0, 1.718467957634021E9, 0.0, 2024-06-15 11:12:37.634
149.0, 75240.84451685484, 59621.66900893081, 75093.54652089435, -187500.02235174447, 107040.24667027553, -75053.82747099728, -89315.82740733952, -187500.02235174447, 0.054, 0.984, -0.082, 192.0, 0.0, 0.0, 0.0, 0.0, 0.0, 0.0, 0.0, 0.0, 0.0, 1.7184679576340308E9, 0.0, 2024-06-15 11:12:37.634
150.0, 75251.64040942675, 60000.84400187064, 74814.86497102558, -187500.02235174447, 105853.50315016546, -75443.66424604229, -89841.13810552814, -187500.02235174447, 0.054, 0.984, -0.082, 192.0, 0.0, 0.0, 0.0, 0.0, 0.0, 0.0, 0.0, 0.0, 0.0, 1.7184679576340404E9, 0.0, 2024-06-15 11:12:37.634
151.0, 75076.6262503417, 61284.75055512793, 76300.67483194768, -187500.02235174447, 107863.72963949796, -73965.14105381264, -88499.29583064269, -187500.02235174447, 0.054, 0.984, -0.082, 192.0, 0.0, 0.0, 0.0, 0.0, 0.0, 0.0, 0.0, 0.0, 0.0, 1.7184679576340504E9, 0.0, 2024-06-15 11:12:37.634
152.0, 75024.39022354964, 61072.297224080234, 76697.82062742957, -187500.02235174447, 109193.21139969962, -73451.92264937433, -87862.49463111098, -187500.02235174447, 0.054, 0.984, -0.082, 192.0, 0.0, 0.0, 0.0, 0.0, 0.0, 0.0, 0.0, 0.0, 0.0, 1.7184679576340601E9, 0.0, 2024-06-15 11:12:37.634
153.0, 75183.6464027937, 59773.72792646026, 75325.66938706272, -187500.02235174447, 107477.69266101035, -74789.2498718798, -89046.69005235315, -187500.02235174447, 0.054, 0.984, -0.082, 192.0, 0.0, 0.0, 0.0, 0.0, 0.0, 0.0, 0.0, 0.0, 0.0, 1.7184679576340702E9, 0.0, 2024-06-15 11:12:37.634
154.0, 75246.5665634354, 59770.48692351424, 74675.03245771318, -187500.02235174447, 105802.18354489608, -75557.99341893118, -89904.28178361438, -187500.02235174447, 0.054, 0.984, -0.082, 192.0, 0.0, 0.0, 0.0, 0.0, 0.0, 0.0, 0.0, 0.0, 0.0, 1.7184679576340804E9, 0.0, 2024-06-15 11:12:37.634
155.0, 75087.60095686924, 61126.410797406534, 76052.88339291613, -187500.02235174447, 107467.25439634973, -74195.47578042457, -88707.50233024388, -187500.02235174447, 0.054, 0.984, -0.082, 192.0, 0.0, 0.0, 0.0, 0.0, 0.0, 0.0, 0.0, 0.0, 0.0, 1.71846795763409E9, 0.0, 2024-06-15 11:12:37.634
156.0, 75031.25220909741, 61219.01407468487, 76766.52988988518, -187500.02235174447, 109177.38636462527, -73411.64480586587, -87832.31977609632, -187500.02235174447, 0.058, 0.986, -0.08, 192.0, 1.0, 208.0, 30.0, 208.0, 253.0, 128.0, 0.0, 0.0, 0.0, 1.7184679576340997E9, 0.0, 2024-06-15 11:12:37.634
157.0, 75177.1420451572, 60005.89549611753, 75608.50836140018, -187500.02235174447, 107922.85000358225, -74522.88413320591, -88777.3515316667, -187500.02235174447, 0.058, 0.986, -0.08, 192.0, 0.0, 0.0, 0.0, 0.0, 0.0, 0.0, 0.0, 0.0, 0.0, 1.7184679576341095E9, 0.0, 2024-06-15 11:12:37.634
158.0, 75279.96006965161, 59641.31619230702, 74638.17443110638, -187500.02235174447, 105879.25235977798, -75629.69781514381, -89924.26424315742, -187500.02235174447, 0.058, 0.986, -0.08, 192.0, 0.0, 0.0, 0.0, 0.0, 0.0, 0.0, 0.0, 0.0, 0.0, 1.7184679576341195E9, 0.0, 2024-06-15 11:12:37.634
159.0, 75129.91280912314, 60965.05355418367, 75814.68085225593, -187500.02235174447, 107087.09592665386, -74475.85606287194, -88955.60669369777, -187500.02235174447, 0.058, 0.986, -0.08, 192.0, 0.0, 0.0, 0.0, 0.0, 0.0, 0.0, 0.0, 0.0, 0.0, 1.7184679576341307E9, 0.0, 2024-06-15 11:12:37.634
160.0, 75033.17445912058, 61335.578422019295, 76803.52202695872, -187500.02235174447, 109103.55855268938, -73383.25809040763, -87814.66189797664, -187500.02235174447, 0.058, 0.986, -0.08, 192.0, 0.0, 0.0, 0.0, 0.0, 0.0, 0.0, 0.0, 0.0, 0.0, 1.7184679576341407E9, 0.0, 2024-06-15 11:12:37.634
161.0, 75161.49582403849, 60250.78120836988, 75888.93334733645, -187500.02235174447, 108344.76153192062, -74229.74100467456, -88491.47272008333, -187500.02235174447, 0.058, 0.986, -0.08, 192.0, 0.0, 0.0, 0.0, 0.0, 0.0, 0.0, 0.0, 0.0, 0.0, 1.7184679576341505E9, 0.0, 2024-06-15 11:12:37.634
162.0, 75289.01252615602, 59549.338763873435, 74659.49799531675, -187500.02235174447, 106061.62024278883, -75592.37040190345, -89847.68716665354, -187500.02235174447, 0.058, 0.986, -0.08, 192.0, 0.0, 0.0, 0.0, 0.0, 0.0, 0.0, 0.0, 0.0, 0.0, 1.7184679576341605E9, 0.0, 2024-06-15 11:12:37.634
163.0, 75151.32578031132, 60721.19602217627, 75519.68252893479, -187500.02235174447, 106679.42245953351, -74792.6026335481, -89236.52341801208, -187500.02235174447, 0.058, 0.986, -0.08, 192.0, 0.0, 0.0, 0.0, 0.0, 0.0, 0.0, 0.0, 0.0, 0.0, 1.7184679576341703E9, 0.0, 2024-06-15 11:12:37.634
164.0, 75017.68470021304, 61369.19544568008, 76742.12178493998, -187500.02235174447, 108879.21409359146, -73496.31321386257, -87937.86471341428, -187500.02235174447, 0.058, 0.986, -0.08, 192.0, 0.0, 0.0, 0.0, 0.0, 0.0, 0.0, 0.0, 0.0, 0.0, 1.71846795763418E9, 0.0, 2024-06-15 11:12:37.634
165.0, 75093.27829996089, 60460.48527484957, 76149.28646675187, -187500.02235174447, 108709.31848398669, -73956.13330079714, -88227.34215585496, -187500.02235174447, 0.058, 0.986, -0.08, 192.0, 0.0, 0.0, 0.0, 0.0, 0.0, 0.0, 0.0, 0.0, 0.0, 1.71846795763419E9, 0.0, 2024-06-15 11:12:37.634
166.0, 75267.77836892348, 59497.63917894831, 74733.05758631916, -187500.02235174447, 106336.7478652892, -75478.13063599238, -89697.46109216943, -187500.02235174447, 0.06, 0.978, -0.08, 192.0, 1.0, 224.0, 30.0, 144.0, 253.0, 128.0, 0.0, 0.0, 0.0, 1.7184679576342E9, 0.0, 2024-06-15 11:12:37.634
167.0, 75182.3500016153, 60466.69905980815, 75247.14770879122, -187500.02235174447, 106322.845080238, -75076.89447127515, -89477.63168545147, -187500.02235174447, 0.06, 0.978, -0.08, 192.0, 0.0, 0.0, 0.0, 0.0, 0.0, 0.0, 0.0, 0.0, 0.0, 1.7184679576342096E9, 0.0, 2024-06-15 11:12:37.634
168.0, 75047.6136860387, 61396.48692566001, 76647.05981577156, -187500.02235174447, 108572.83873234257, -73664.84536705559, -88109.54846257549, -187500.02235174447, 0.06, 0.978, -0.08, 192.0, 0.0, 0.0, 0.0, 0.0, 0.0, 0.0, 0.0, 0.0, 0.0, 1.7184679576342194E9, 0.0, 2024-06-15 11:12:37.634
169.0, 75078.41438989811, 60697.10084165345, 76394.90978657124, -187500.02235174447, 108949.57738513677, -73803.8732175676, -88085.3415233304, -187500.02235174447, 0.06, 0.978, -0.08, 192.0, 0.0, 0.0, 0.0, 0.0, 0.0, 0.0, 0.0, 0.0, 0.0, 1.7184679576342292E9, 0.0, 2024-06-15 11:12:37.634
170.0, 75243.97376107857, 59537.8499672234, 74910.50808554985, -187500.02235174447, 106693.50405854036, -75319.74617478206, -89509.14764513346, -187500.02235174447, 0.06, 0.978, -0.08, 192.0, 0.0, 0.0, 0.0, 0.0, 0.0, 0.0, 0.0, 0.0, 0.0, 1.718467957634239E9, 0.0, 2024-06-15 11:12:37.634
171.0, 75209.19444670611, 60227.11071099171, 75019.78576419184, -187500.02235174447, 106066.20235040216, -75301.21657862862, -89653.27169338128, -187500.02235174447, 0.06, 0.978, -0.08, 192.0, 0.0, 0.0, 0.0, 0.0, 0.0, 0.0, 0.0, 0.0, 0.0, 1.7184679576342492E9, 0.0, 2024-06-15 11:12:37.634
172.0, 75057.3143431323, 61367.56376833484, 76499.6053575999, -187500.02235174447, 108234.00863814457, -73820.48056369789, -88267.26237145215, -187500.02235174447, 0.06, 0.978, -0.08, 192.0, 0.0, 0.0, 0.0, 0.0, 0.0, 0.0, 0.0, 0.0, 0.0, 1.7184679576342592E9, 0.0, 2024-06-15 11:12:37.634
173.0, 75055.68266578707, 60912.28108552469, 76583.11147488494, -187500.02235174447, 109117.03665459594, -73624.76868924721, -87927.2029313091, -187500.02235174447, 0.06, 0.978, -0.08, 192.0, 0.0, 0.0, 0.0, 0.0, 0.0, 0.0, 0.0, 0.0, 0.0, 1.718467957634269E9, 0.0, 2024-06-15 11:12:37.634
0.0, 0.0, 0.0, 0.0, 0.0, 0.0, 0.0, 0.0, 0.0, 0.044, 0.976, -0.132, 192.0, 1.0, 96.0, 30.0, 128.0, 251.0, 224.0, 0.0, 0.0, 0.0, 1.7184679577328303E9, 0.0, 2024-06-15 11:12:37.732
1.0, 78892.98545038527, 60390.03257632644, 73913.37441365415, -187500.02235174447, 113237.84896586525, -102809.8661076863, -91848.21299889243, -187500.02235174447, 0.044, 0.976, -0.132, 192.0, 0.0, 0.0, 0.0, 0.0, 0.0, 0.0, 0.0, 0.0, 0.0, 1.718467958214374E9, 0.0, 2024-06-15 11:12:38.214
2.0, 78941.51108759774, 60967.19932165138, 74480.68403967429, -187500.02235174447, 113208.29995969535, -102743.52613014296, -91861.22171416543, -187500.02235174447, 0.044, 0.976, -0.132, 192.0, 0.0, 0.0, 0.0, 0.0, 0.0, 0.0, 0.0, 0.0, 0.0, 1.7184679582144005E9, 0.0, 2024-06-15 11:12:38.214
3.0, 78882.74835142474, 61246.819644787276, 75818.10066915759, -187500.02235174447, 115089.98156666537, -101741.27390876698, -90809.05804742075, -187500.02235174447, 0.044, 0.976, -0.132, 192.0, 0.0, 0.0, 0.0, 0.0, 0.0, 0.0, 0.0, 0.0, 0.0, 1.7184679582145665E9, 0.0, 2024-06-15 11:12:38.214
4.0, 78839.07304275908, 60824.95281993781, 75518.00614810064, -187500.02235174447, 115423.31313172737, -101644.62496574223, -90625.01378357575, -187500.02235174447, 0.044, 0.976, -0.132, 192.0, 0.0, 0.0, 0.0, 0.0, 0.0, 0.0, 0.0, 0.0, 0.0, 1.7184679582145772E9, 0.0, 2024-06-15 11:12:38.214
5.0, 78906.08357263608, 60412.67489345967, 74062.61701138223, -187500.02235174447, 113533.58489675343, -102676.06856537683, -91685.64876146898, -187500.02235174447, 0.044, 0.976, -0.132, 192.0, 0.0, 0.0, 0.0, 0.0, 0.0, 0.0, 0.0, 0.0, 0.0, 1.7184679582145865E9, 0.0, 2024-06-15 11:12:38.214
6.0, 78967.17089023243, 60878.95463454183, 74240.69335945765, -187500.02235174447, 112988.33644251067, -102881.05641377646, -91978.36720685569, -187500.02235174447, 0.044, 0.976, -0.132, 192.0, 0.0, 0.0, 0.0, 0.0, 0.0, 0.0, 0.0, 0.0, 0.0, 1.7184679582145956E9, 0.0, 2024-06-15 11:12:38.214
7.0, 78927.78711650218, 61291.92546509808, 75676.54707152213, -187500.02235174447, 114803.02987134813, -101896.9538088982, -90968.11306096472, -187500.02235174447, 0.044, 0.976, -0.132, 192.0, 0.0, 0.0, 0.0, 0.0, 0.0, 0.0, 0.0, 0.0, 0.0, 1.7184679582146044E9, 0.0, 2024-06-15 11:12:38.214
8.0, 78873.24886003124, 60952.78244647771, 75708.26419690422, -187500.02235174447, 115564.10677005134, -101575.84864805326, -90554.58343679708, -187500.02235174447, 0.028, 0.968, -0.162, 192.0, 0.0, 224.0, 30.0, 64.0, 250.0, 240.0, 0.0, 0.0, 0.0, 1.7184679582146137E9, 0.0, 2024-06-15 11:12:38.214
9.0, 78921.2827588657, 60448.19181539915, 74280.61357505484, -187500.02235174447, 113916.58203799512, -102477.20509495797, -91462.80186924957, -187500.02235174447, 0.028, 0.968, -0.162, 192.0, 0.0, 0.0, 0.0, 0.0, 0.0, 0.0, 0.0, 0.0, 0.0, 1.7184679582146225E9, 0.0, 2024-06-15 11:12:38.214
10.0, 79008.78983840822, 60769.40873496637, 74032.4198046231, -187500.02235174447, 112855.8353013796, -102986.86957202788, -92062.94620787457, -187500.02235174447, 0.028, 0.968, -0.162, 192.0, 0.0, 0.0, 0.0, 0.0, 0.0, 0.0, 0.0, 0.0, 0.0, 1.7184679582146313E9, 0.0, 2024-06-15 11:12:38.214
11.0, 78978.81614909365, 61292.528962198376, 75483.94208955075, -187500.02235174447, 114489.1219722178, -102069.46457260425, -91141.9649293381, -187500.02235174447, 0.028, 0.968, -0.162, 192.0, 0.0, 0.0, 0.0, 0.0, 0.0, 0.0, 0.0, 0.0, 0.0, 1.7184679582146404E9, 0.0, 2024-06-15 11:12:38.214
12.0, 78932.97272121582, 61070.82200894618, 75844.81100378168, -187500.02235174447, 115621.61780853485, -101564.33749965877, -90540.94887267935, -187500.02235174447, 0.028, 0.968, -0.162, 192.0, 0.0, 0.0, 0.0, 0.0, 0.0, 0.0, 0.0, 0.0, 0.0, 1.7184679582146492E9, 0.0, 2024-06-15 11:12:38.214
13.0, 78966.12035824303, 60532.6367059513, 74549.32624689654, -187500.02235174447, 114304.34010080578, -102319.71470352587, -91277.90823911528, -187500.02235174447, 0.028, 0.968, -0.162, 192.0, 0.0, 0.0, 0.0, 0.0, 0.0, 0.0, 0.0, 0.0, 0.0, 1.718467958214658E9, 0.0, 2024-06-15 11:12:38.214
14.0, 79053.18040289645, 60683.53333276908, 73903.00320422689, -187500.02235174447, 112826.59921963206, -103066.28532007759, -92113.61761255475, -187500.02235174447, 0.028, 0.968, -0.162, 192.0, 0.0, 0.0, 0.0, 0.0, 0.0, 0.0, 0.0, 0.0, 0.0, 1.7184679582146668E9, 0.0, 2024-06-15 11:12:38.214
15.0, 79024.9054461605, 61276.301595723824, 75253.49560421653, -187500.02235174447, 114145.79917738428, -102283.34841529709, -91355.02175748609, -187500.02235174447, 0.028, 0.968, -0.162, 192.0, 0.0, 0.0, 0.0, 0.0, 0.0, 0.0, 0.0, 0.0, 0.0, 1.7184679582146757E9, 0.0, 2024-06-15 11:12:38.214
16.0, 78959.1913174619, 61158.239681510895, 75928.16065885552, -187500.02235174447, 115620.85784922336, -101551.68641229707, -90533.59514875355, -187500.02235174447, 0.028, 0.968, -0.162, 192.0, 0.0, 0.0, 0.0, 0.0, 0.0, 0.0, 0.0, 0.0, 0.0, 1.7184679582146842E9, 0.0, 2024-06-15 11:12:38.214
17.0, 78983.8452915961, 60620.18848898274, 74830.60059912212, -187500.02235174447, 114703.78812596657, -102107.48488992274, -91048.6910997261, -187500.02235174447, 0.028, 0.968, -0.162, 192.0, 0.0, 0.0, 0.0, 0.0, 0.0, 0.0, 0.0, 0.0, 0.0, 1.7184679582146933E9, 0.0, 2024-06-15 11:12:38.214
18.0, 79089.43493240296, 60595.55686659299, 73841.91588663052, -187500.02235174447, 112908.13838340502, -103046.7275436792, -92068.48944049948, -187500.02235174447, 0.026000000000000002, 0.964, -0.176, 192.0, 0.0, 208.0, 30.0, 32.0, 250.0, 128.0, 0.0, 0.0, 0.0, 1.718467958214702E9, 0.0, 2024-06-15 11:12:38.214
19.0, 79087.0656474907, 61217.53885955082, 74987.73336264293, -187500.02235174447, 113793.80390570211, -102486.01168227335, -91554.68989070534, -187500.02235174447, 0.026000000000000002, 0.964, -0.176, 192.0, 0.0, 0.0, 0.0, 0.0, 0.0, 0.0, 0.0, 0.0, 0.0, 1.7184679582147107E9, 0.0, 2024-06-15 11:12:38.214
20.0, 79022.17853333695, 61236.58254582674, 75945.72912999739, -187500.02235174447, 115491.21773138258, -101627.41412251165, -90616.65423114947, -187500.02235174447, 0.026000000000000002, 0.964, -0.176, 192.0, 0.0, 0.0, 0.0, 0.0, 0.0, 0.0, 0.0, 0.0, 0.0, 1.7184679582147195E9, 0.0, 2024-06-15 11:12:38.214
21.0, 79005.14650406201, 60716.25628665165, 75116.79233512787, -187500.02235174447, 115027.66490312396, -101964.32196668649, -90894.68758042903, -187500.02235174447, 0.026000000000000002, 0.964, -0.176, 192.0, 0.0, 0.0, 0.0, 0.0, 0.0, 0.0, 0.0, 0.0, 0.0, 1.7184679582147284E9, 0.0, 2024-06-15 11:12:38.214
22.0, 79078.08024621967, 60506.77573761651, 73869.5873462662, -187500.02235174447, 113096.11655427415, -102958.57226354745, -91957.06599438978, -187500.02235174447, 0.026000000000000002, 0.964, -0.176, 192.0, 0.0, 0.0, 0.0, 0.0, 0.0, 0.0, 0.0, 0.0, 0.0, 1.718467958214737E9, 0.0, 2024-06-15 11:12:38.214
23.0, 79105.5728918997, 61117.78302404679, 74700.60285337006, -187500.02235174447, 113467.66960235473, -102682.66232999114, -91749.23947444433, -187500.02235174447, 0.026000000000000002, 0.964, -0.176, 192.0, 0.0, 0.0, 0.0, 0.0, 0.0, 0.0, 0.0, 0.0, 0.0, 1.718467958214746E9, 0.0, 2024-06-15 11:12:38.214
24.0, 79037.84710620012, 61267.60676713071, 75898.23167302986, -187500.02235174447, 115335.80605218484, -101686.71330055158, -90689.78913900723, -187500.02235174447, 0.026000000000000002, 0.964, -0.176, 192.0, 0.0, 0.0, 0.0, 0.0, 0.0, 0.0, 0.0, 0.0, 0.0, 1.718467958214759E9, 0.0, 2024-06-15 11:12:38.214
25.0, 79029.12992586255, 60801.52819174864, 75342.16497447074, -187500.02235174447, 115316.74001416446, -101801.3330461184, -90727.42947666997, -187500.02235174447, 0.026000000000000002, 0.964, -0.176, 192.0, 0.0, 0.0, 0.0, 0.0, 0.0, 0.0, 0.0, 0.0, 0.0, 1.7184679582147677E9, 0.0, 2024-06-15 11:12:38.214
26.0, 79115.69823213795, 60467.48137086408, 73930.00411152889, -187500.02235174447, 113340.73404559304, -102877.54718989697, -91851.11872567162, -187500.02235174447, 0.026000000000000002, 0.964, -0.176, 192.0, 0.0, 0.0, 0.0, 0.0, 0.0, 0.0, 0.0, 0.0, 0.0, 1.7184679582147765E9, 0.0, 2024-06-15 11:12:38.214
27.0, 79162.99452340539, 60998.93879877792, 74400.62009103538, -187500.02235174447, 113200.92388402509, -102861.72215482261, -91915.15647353607, -187500.02235174447, 0.026000000000000002, 0.964, -0.176, 192.0, 0.0, 0.0, 0.0, 0.0, 0.0, 0.0, 0.0, 0.0, 0.0, 1.718467958214785E9, 0.0, 2024-06-15 11:12:38.214
28.0, 79120.23563626238, 61314.29956129785, 75762.15425278596, -187500.02235174447, 115080.59383399413, -101865.21433177165, -90873.52047842985, -187500.02235174447, 0.022, 0.968, -0.19, 192.0, 0.0, 176.0, 30.0, 64.0, 250.0, 16.0, 0.0, 0.0, 0.0, 1.718467958214794E9, 0.0, 2024-06-15 11:12:38.214
29.0, 79070.77122578278, 60909.17419304541, 75557.0322939196, -187500.02235174447, 115537.99993252754, -101708.03686476193, -90627.02544057673, -187500.02235174447, 0.022, 0.968, -0.19, 192.0, 0.0, 0.0, 0.0, 0.0, 0.0, 0.0, 0.0, 0.0, 0.0, 1.7184679582148025E9, 0.0, 2024-06-15 11:12:38.214
30.0, 79136.3288922702, 60466.63200457478, 74097.46338098805, -187500.02235174447, 113703.99459648068, -102705.97519945803, -91652.81404886414, -187500.02235174447, 0.022, 0.968, -0.19, 192.0, 0.0, 0.0, 0.0, 0.0, 0.0, 0.0, 0.0, 0.0, 0.0, 1.718467958214811E9, 0.0, 2024-06-15 11:12:38.214
31.0, 79207.89917801609, 60897.19365801736, 74157.12018693927, -187500.02235174447, 113001.94865488395, -103018.1173107764, -92057.04534733837, -187500.02235174447, 0.022, 0.968, -0.19, 192.0, 0.0, 0.0, 0.0, 0.0, 0.0, 0.0, 0.0, 0.0, 0.0, 1.71846795821482E9, 0.0, 2024-06-15 11:12:38.214
32.0, 79161.1393286156, 61330.79514870586, 75624.08752728552, -187500.02235174447, 114808.3495865285, -102002.78931889408, -91019.231500534, -187500.02235174447, 0.022, 0.968, -0.19, 192.0, 0.0, 0.0, 0.0, 0.0, 0.0, 0.0, 0.0, 0.0, 0.0, 1.7184679582148287E9, 0.0, 2024-06-15 11:12:38.214
33.0, 79134.74191841387, 61036.19915678492, 75744.09404326607, -187500.02235174447, 115665.76250383408, -101650.1905501116, -90571.12372769401, -187500.02235174447, 0.022, 0.968, -0.19, 192.0, 0.0, 0.0, 0.0, 0.0, 0.0, 0.0, 0.0, 0.0, 0.0, 1.7184679582148376E9, 0.0, 2024-06-15 11:12:38.214
34.0, 79192.05179119729, 60532.86022339585, 74356.27423003606, -187500.02235174447, 114097.96644424993, -102540.79580793332, -91462.60070354947, -187500.02235174447, 0.022, 0.968, -0.19, 192.0, 0.0, 0.0, 0.0, 0.0, 0.0, 0.0, 0.0, 0.0, 0.0, 1.7184679582148461E9, 0.0, 2024-06-15 11:12:38.214
35.0, 79285.50443476492, 60810.67005523087, 74011.61033053522, -187500.02235174447, 112932.77000579477, -103114.40862588986, -92128.72739180653, -187500.02235174447, 0.022, 0.968, -0.19, 192.0, 0.0, 0.0, 0.0, 0.0, 0.0, 0.0, 0.0, 0.0, 0.0, 1.7184679582148547E9, 0.0, 2024-06-15 11:12:38.214
36.0, 79243.63961740013, 61345.39083783518, 75452.24731591312, -187500.02235174447, 114511.98780679559, -102207.3748358935, -91228.30971816895, -187500.02235174447, 0.022, 0.968, -0.19, 192.0, 0.0, 0.0, 0.0, 0.0, 0.0, 0.0, 0.0, 0.0, 0.0, 1.7184679582148635E9, 0.0, 2024-06-15 11:12:38.214
37.0, 79171.64464850958, 61140.15712024655, 75896.4658852179, -187500.02235174447, 115758.58929855697, -101610.51620370343, -90536.90320693294, -187500.02235174447, 0.022, 0.968, -0.19, 192.0, 0.0, 0.0, 0.0, 0.0, 0.0, 0.0, 0.0, 0.0, 0.0, 1.7184679582148724E9, 0.0, 2024-06-15 11:12:38.214
38.0, 79187.11205567265, 60583.55397982049, 74637.63798923946, -187500.02235174447, 114548.30939153545, -102298.10056663759, -91200.50414806654, -187500.02235174447, 0.022, 0.968, -0.19, 192.0, 0.0, 0.0, 0.0, 0.0, 0.0, 0.0, 0.0, 0.0, 0.0, 1.7184679582148812E9, 0.0, 2024-06-15 11:12:38.214
39.0, 79296.74736222594, 60694.955074185746, 73882.75252375037, -187500.02235174447, 112964.57653815468, -103121.51648062665, -92113.1929294101, -187500.02235174447, 0.028, 0.964, -0.19, 192.0, 0.0, 224.0, 30.0, 32.0, 250.0, 16.0, 0.0, 0.0, 0.0, 1.7184679582148898E9, 0.0, 2024-06-15 11:12:38.214
40.0, 79284.78917894234, 61313.71841594201, 75190.53074008593, -187500.02235174447, 114182.32192782426, -102400.06922484271, -91421.18292107379, -187500.02235174447, 0.028, 0.964, -0.19, 192.0, 0.0, 0.0, 0.0, 0.0, 0.0, 0.0, 0.0, 0.0, 0.0, 1.7184679582148983E9, 0.0, 2024-06-15 11:12:38.214
41.0, 79222.22664621194, 61233.20743241399, 75945.41620557502, -187500.02235174447, 115718.24439981514, -101634.92430864862, -90568.08389044809, -187500.02235174447, 0.028, 0.964, -0.19, 192.0, 0.0, 0.0, 0.0, 0.0, 0.0, 0.0, 0.0, 0.0, 0.0, 1.7184679582149072E9, 0.0, 2024-06-15 11:12:38.214
42.0, 79228.37337593715, 60689.970635172205, 74919.94052170998, -187500.02235174447, 114926.99264609726, -102121.07475055156, -91008.0332765619, -187500.02235174447, 0.028, 0.964, -0.19, 192.0, 0.0, 0.0, 0.0, 0.0, 0.0, 0.0, 0.0, 0.0, 0.0, 1.718467958214916E9, 0.0, 2024-06-15 11:12:38.214
43.0, 79319.5684933148, 60617.685093603744, 73860.26666882834, -187500.02235174447, 113088.78518209282, -103078.55642778355, -92046.18239953309, -187500.02235174447, 0.028, 0.964, -0.19, 192.0, 0.0, 0.0, 0.0, 0.0, 0.0, 0.0, 0.0, 0.0, 0.0, 1.7184679582149246E9, 0.0, 2024-06-15 11:12:38.214
44.0, 79315.50047582394, 61241.902261007104, 74937.26312366285, -187500.02235174447, 113865.128322259, -102567.37203209067, -91586.74229225425, -187500.02235174447, 0.028, 0.964, -0.19, 192.0, 0.0, 0.0, 0.0, 0.0, 0.0, 0.0, 0.0, 0.0, 0.0, 1.7184679582149334E9, 0.0, 2024-06-15 11:12:38.214
45.0, 79256.49187046193, 61292.97599708748, 75950.91473471103, -187500.02235174447, 115601.38947980279, -101688.85906801929, -90628.85828362206, -187500.02235174447, 0.028, 0.964, -0.19, 192.0, 0.0, 0.0, 0.0, 0.0, 0.0, 0.0, 0.0, 0.0, 0.0, 1.7184679582149422E9, 0.0, 2024-06-15 11:12:38.214
46.0, 79241.67266388806, 60773.76732513515, 75190.53074008593, -187500.02235174447, 115258.02198148037, -101953.39196364784, -90827.65469880757, -187500.02235174447, 0.028, 0.964, -0.19, 192.0, 0.0, 0.0, 0.0, 0.0, 0.0, 0.0, 0.0, 0.0, 0.0, 1.7184679582149508E9, 0.0, 2024-06-15 11:12:38.214
47.0, 79332.04076672086, 60531.96615361764, 73887.84872148618, -187500.02235174447, 113290.84495196879, -102989.10474647341, -91928.56752020927, -187500.02235174447, 0.028, 0.964, -0.19, 192.0, 0.0, 0.0, 0.0, 0.0, 0.0, 0.0, 0.0, 0.0, 0.0, 1.7184679582149596E9, 0.0, 2024-06-15 11:12:38.214
48.0, 79370.77633986191, 61132.55752713174, 74636.56510550561, -187500.02235174447, 113533.56254500897, -102783.9604358626, -91795.6193441891, -187500.02235174447, 0.028, 0.964, -0.19, 192.0, 0.0, 0.0, 0.0, 0.0, 0.0, 0.0, 0.0, 0.0, 0.0, 1.7184679582149684E9, 0.0, 2024-06-15 11:12:38.214
49.0, 79308.7726007429, 61340.0264191659, 75889.22392001438, -187500.02235174447, 115407.95748328656, -101811.4807381011, -90761.40412824204, -187500.02235174447, 0.024, 0.966, -0.188, 192.0, 0.0, 192.0, 30.0, 48.0, 250.0, 32.0, 0.0, 0.0, 0.0, 1.718467958214977E9, 0.0, 2024-06-15 11:12:38.214
50.0, 79274.52972823736, 60890.17521025839, 75441.47377508567, -187500.02235174447, 115541.71032210713, -101819.81793878293, -90689.20799365139, -187500.02235174447, 0.024, 0.966, -0.188, 192.0, 0.0, 0.0, 0.0, 0.0, 0.0, 0.0, 0.0, 0.0, 0.0, 1.7184679582149858E9, 0.0, 2024-06-15 11:12:38.214
51.0, 79356.11359549924, 60524.701836669665, 73999.7639059739, -187500.02235174447, 113594.73926958315, -102877.14485849677, -91791.88660286505, -187500.02235174447, 0.024, 0.966, -0.188, 192.0, 0.0, 0.0, 0.0, 0.0, 0.0, 0.0, 0.0, 0.0, 0.0, 1.7184679582149947E9, 0.0, 2024-06-15 11:12:38.214
52.0, 79402.40405826617, 61031.617049171575, 74367.87478540836, -187500.02235174447, 113305.5971033093, -102949.34099308742, -91949.73462220843, -187500.02235174447, 0.024, 0.966, -0.188, 192.0, 0.0, 0.0, 0.0, 0.0, 0.0, 0.0, 0.0, 0.0, 0.0, 1.7184679582150033E9, 0.0, 2024-06-15 11:12:38.215
53.0, 79334.85708652224, 61363.02636421042, 75757.19216551688, -187500.02235174447, 115175.5887479292, -101941.09850419742, -90897.7050659305, -187500.02235174447, 0.024, 0.966, -0.188, 192.0, 0.0, 0.0, 0.0, 0.0, 0.0, 0.0, 0.0, 0.0, 0.0, 1.718467958215012E9, 0.0, 2024-06-15 11:12:38.215
54.0, 79296.34503082575, 60997.48593538832, 75631.93298958933, -187500.02235174447, 115739.88088844788, -101727.4605306936, -90591.46381514834, -187500.02235174447, 0.024, 0.966, -0.188, 192.0, 0.0, 0.0, 0.0, 0.0, 0.0, 0.0, 0.0, 0.0, 0.0, 1.7184679582150207E9, 0.0, 2024-06-15 11:12:38.215
55.0, 79361.29920021286, 60539.945726388185, 74182.33295468485, -187500.02235174447, 113968.97452699835, -102693.56998128534, -91579.58973402856, -187500.02235174447, 0.024, 0.966, -0.188, 192.0, 0.0, 0.0, 0.0, 0.0, 0.0, 0.0, 0.0, 0.0, 0.0, 1.7184679582150292E9, 0.0, 2024-06-15 11:12:38.215
56.0, 79435.9540266936, 60924.37337927501, 74132.93559943863, -187500.02235174447, 113157.51679629288, -103051.93550013728, -92030.82675109229, -187500.02235174447, 0.024, 0.966, -0.188, 192.0, 0.0, 0.0, 0.0, 0.0, 0.0, 0.0, 0.0, 0.0, 0.0, 1.718467958215038E9, 0.0, 2024-06-15 11:12:38.215
57.0, 79403.7898664224, 61400.28672221741, 75592.1468844589, -187500.02235174447, 114893.28621545866, -102109.27302947915, -91073.21096339358, -187500.02235174447, 0.024, 0.966, -0.188, 192.0, 0.0, 0.0, 0.0, 0.0, 0.0, 0.0, 0.0, 0.0, 0.0, 1.718467958215047E9, 0.0, 2024-06-15 11:12:38.215
58.0, 79341.4284993921, 61118.11830021362, 75804.35434631757, -187500.02235174447, 115874.37133483546, -101655.4879135475, -90520.98876488075, -187500.02235174447, 0.024, 0.966, -0.188, 192.0, 0.0, 0.0, 0.0, 0.0, 0.0, 0.0, 0.0, 0.0, 0.0, 1.7184679582150557E9, 0.0, 2024-06-15 11:12:38.215
59.0, 79392.07755232783, 60602.3517969074, 74428.42566113778, -187500.02235174447, 114378.7490580975, -102503.02135980384, -91364.34243492395, -187500.02235174447, 0.02, 0.968, -0.194, 192.0, 0.0, 160.0, 30.0, 64.0, 249.0, 240.0, 0.0, 0.0, 0.0, 1.7184679582150643E9, 0.0, 2024-06-15 11:12:38.215
60.0, 79482.60211737182, 60830.47370081827, 73969.58905095924, -187500.02235174447, 113096.69769962999, -103136.62625987844, -92092.91989718913, -187500.02235174447, 0.02, 0.968, -0.194, 192.0, 0.0, 0.0, 0.0, 0.0, 0.0, 0.0, 0.0, 0.0, 0.0, 1.718467958215073E9, 0.0, 2024-06-15 11:12:38.215
61.0, 79457.29994264842, 61383.09823073128, 75376.36314348735, -187500.02235174447, 114573.03042090303, -102307.64476152, -91274.30960825797, -187500.02235174447, 0.02, 0.968, -0.194, 192.0, 0.0, 0.0, 0.0, 0.0, 0.0, 0.0, 0.0, 0.0, 0.0, 1.7184679582150817E9, 0.0, 2024-06-15 11:12:38.215
62.0, 79385.30497375787, 61200.506830275874, 75911.97799586988, -187500.02235174447, 115902.02044272667, -101666.999061942, -90538.0207941557, -187500.02235174447, 0.02, 0.968, -0.194, 192.0, 0.0, 0.0, 0.0, 0.0, 0.0, 0.0, 0.0, 0.0, 0.0, 1.7184679582150905E9, 0.0, 2024-06-15 11:12:38.215
63.0, 79395.60912795176, 60658.05234409003, 74714.93032156592, -187500.02235174447, 114806.44968824979, -102298.07821489313, -91139.84151361484, -187500.02235174447, 0.02, 0.968, -0.194, 192.0, 0.0, 0.0, 0.0, 0.0, 0.0, 0.0, 0.0, 0.0, 0.0, 1.7184679582150993E9, 0.0, 2024-06-15 11:12:38.215
64.0, 79489.79937908643, 60721.79951927657, 73880.31618360475, -187500.02235174447, 113161.47305506148, -103144.91875707135, -92076.24549582548, -187500.02235174447, 0.02, 0.968, -0.194, 192.0, 0.0, 0.0, 0.0, 0.0, 0.0, 0.0, 0.0, 0.0, 0.0, 1.718467958215108E9, 0.0, 2024-06-15 11:12:38.215
65.0, 79484.90434705072, 61337.970058676015, 75129.10814632275, -187500.02235174447, 114267.83970211026, -102494.03595853281, -91461.01372969315, -187500.02235174447, 0.02, 0.968, -0.194, 192.0, 0.0, 0.0, 0.0, 0.0, 0.0, 0.0, 0.0, 0.0, 0.0, 1.7184679582151167E9, 0.0, 2024-06-15 11:12:38.215
66.0, 79414.58575899432, 61284.03529930536, 75948.9254294545, -187500.02235174447, 115862.61431725197, -101702.38187341475, -90579.68444582039, -187500.02235174447, 0.02, 0.968, -0.194, 192.0, 0.0, 0.0, 0.0, 0.0, 0.0, 0.0, 0.0, 0.0, 0.0, 1.7184679582151253E9, 0.0, 2024-06-15 11:12:38.215
67.0, 79412.30588105987, 60755.908281315365, 74981.58663291772, -187500.02235174447, 115183.30009976627, -102142.37596301746, -90966.68254931958, -187500.02235174447, 0.02, 0.968, -0.194, 192.0, 0.0, 0.0, 0.0, 0.0, 0.0, 0.0, 0.0, 0.0, 0.0, 1.718467958215134E9, 0.0, 2024-06-15 11:12:38.215
68.0, 79486.33485869586, 60627.51986116408, 73841.24533429687, -187500.02235174447, 113312.19086792361, -103102.15986992835, -92002.99882924544, -187500.02235174447, 0.02, 0.968, -0.194, 192.0, 0.0, 0.0, 0.0, 0.0, 0.0, 0.0, 0.0, 0.0, 0.0, 1.7184679582151427E9, 0.0, 2024-06-15 11:12:38.215
69.0, 79503.769219371, 61248.31721166578, 74822.7551368183, -187500.02235174447, 113938.10676790557, -102692.5418010404, -91649.97537731832, -187500.02235174447, 0.02, 0.968, -0.192, 192.0, 0.0, 160.0, 30.0, 64.0, 250.0, 0.0, 0.0, 0.0, 0.0, 1.7184679582151515E9, 0.0, 2024-06-15 11:12:38.215
70.0, 79433.2941691034, 61340.696971499565, 75910.50278073583, -187500.02235174447, 115730.35904530992, -101758.23888280855, -90636.86020813706, -187500.02235174447, 0.02, 0.968, -0.192, 192.0, 0.0, 0.0, 0.0, 0.0, 0.0, 0.0, 0.0, 0.0, 0.0, 1.7184679582151604E9, 0.0, 2024-06-15 11:12:38.215
71.0, 79421.93948292012, 60856.62524183098, 75217.33048168785, -187500.02235174447, 115487.9096732032, -101970.82632432299, -90778.86084066163, -187500.02235174447, 0.02, 0.968, -0.192, 192.0, 0.0, 0.0, 0.0, 0.0, 0.0, 0.0, 0.0, 0.0, 0.0, 1.7184679582151692E9, 0.0, 2024-06-15 11:12:38.215
72.0, 79509.15598978472, 60588.828991511946, 73879.22094812643, -187500.02235174447, 113520.12914659134, -103018.27377298758, -91885.02632201032, -187500.02235174447, 0.02, 0.968, -0.192, 192.0, 0.0, 0.0, 0.0, 0.0, 0.0, 0.0, 0.0, 0.0, 0.0, 1.718467958215178E9, 0.0, 2024-06-15 11:12:38.215
73.0, 79552.65248449476, 61160.94424258998, 74536.78691825712, -187500.02235174447, 113628.8703833664, -102883.00101554407, -91825.07894338119, -187500.02235174447, 0.02, 0.968, -0.192, 192.0, 0.0, 0.0, 0.0, 0.0, 0.0, 0.0, 0.0, 0.0, 0.0, 1.7184679582151866E9, 0.0, 2024-06-15 11:12:38.215
74.0, 79478.02000975847, 61387.36741392224, 75843.69341655892, -187500.02235174447, 115535.9212202932, -101851.51271242056, -90734.64909012904, -187500.02235174447, 0.02, 0.968, -0.192, 192.0, 0.0, 0.0, 0.0, 0.0, 0.0, 0.0, 0.0, 0.0, 0.0, 1.7184679582151952E9, 0.0, 2024-06-15 11:12:38.215
75.0, 79461.74793979502, 60970.48502808631, 75467.71472307619, -187500.02235174447, 115756.91291772282, -101830.97145926613, -90630.84758887859, -187500.02235174447, 0.02, 0.968, -0.192, 192.0, 0.0, 0.0, 0.0, 0.0, 0.0, 0.0, 0.0, 0.0, 0.0, 1.718467958215204E9, 0.0, 2024-06-15 11:12:38.215
76.0, 79542.79536518996, 60589.38778512333, 74035.5266971024, -187500.02235174447, 113853.08073199759, -102866.99716651406, -91705.27359310075, -187500.02235174447, 0.02, 0.968, -0.192, 192.0, 0.0, 0.0, 0.0, 0.0, 0.0, 0.0, 0.0, 0.0, 0.0, 1.7184679582152128E9, 0.0, 2024-06-15 11:12:38.215
77.0, 79597.42302863873, 61068.45272403392, 74299.52315086403, -187500.02235174447, 113426.85531697933, -103014.02694154107, -91939.63163371464, -187500.02235174447, 0.02, 0.968, -0.192, 192.0, 0.0, 0.0, 0.0, 0.0, 0.0, 0.0, 0.0, 0.0, 0.0, 1.7184679582152216E9, 0.0, 2024-06-15 11:12:38.215
78.0, 79529.7195946836, 61436.51889997946, 75717.18254294188, -187500.02235174447, 115279.88198755766, -102006.54441196256, -90894.97815310695, -187500.02235174447, 0.02, 0.968, -0.192, 192.0, 0.0, 0.0, 0.0, 0.0, 0.0, 0.0, 0.0, 0.0, 0.0, 1.7184679582152305E9, 0.0, 2024-06-15 11:12:38.215
79.0, 79477.9082510362, 61081.86377070711, 75677.15056862243, -187500.02235174447, 115966.10289408003, -101702.73950132602, -90493.83139536755, -187500.02235174447, 0.02, 0.968, -0.192, 192.0, 0.0, 0.0, 0.0, 0.0, 0.0, 0.0, 0.0, 0.0, 0.0, 1.7184679582152393E9, 0.0, 2024-06-15 11:12:38.215
80.0, 79552.94305717267, 60610.68899758923, 74226.70116742863, -187500.02235174447, 114236.6590185951, -102678.32609156682, -91483.72310205974, -187500.02235174447, 0.024, 0.964, -0.194, 192.0, 0.0, 192.0, 30.0, 32.0, 249.0, 240.0, 0.0, 0.0, 0.0, 1.7184679582152479E9, 0.0, 2024-06-15 11:12:38.215
81.0, 79626.21207549717, 60953.56475753365, 74077.10094178926, -187500.02235174447, 113292.99071943651, -103128.17730047433, -92027.58574814627, -187500.02235174447, 0.024, 0.964, -0.194, 192.0, 0.0, 0.0, 0.0, 0.0, 0.0, 0.0, 0.0, 0.0, 0.0, 1.7184679582152565E9, 0.0, 2024-06-15 11:12:38.215
82.0, 79578.49110108508, 61442.71033319359, 75530.70193895126, -187500.02235174447, 114982.35791711307, -102192.06389094162, -91080.0953006858, -187500.02235174447, 0.024, 0.964, -0.194, 192.0, 0.0, 0.0, 0.0, 0.0, 0.0, 0.0, 0.0, 0.0, 0.0, 1.7184679582152653E9, 0.0, 2024-06-15 11:12:38.215
83.0, 79522.67879518018, 61191.45437377148, 75822.23574188183, -187500.02235174447, 116046.70328458588, -101705.62287636077, -90494.09961630101, -187500.02235174447, 0.024, 0.964, -0.194, 192.0, 0.0, 0.0, 0.0, 0.0, 0.0, 0.0, 0.0, 0.0, 0.0, 1.718467958215274E9, 0.0, 2024-06-15 11:12:38.215
84.0, 79555.75937697403, 60666.568358727505, 74504.91333066384, -187500.02235174447, 114657.67647715527, -102481.49662989339, -91258.37281446134, -187500.02235174447, 0.024, 0.964, -0.194, 192.0, 0.0, 0.0, 0.0, 0.0, 0.0, 0.0, 0.0, 0.0, 0.0, 1.718467958215283E9, 0.0, 2024-06-15 11:12:38.215
85.0, 79639.2431425146, 60834.25114563121, 73931.61343712968, -187500.02235174447, 113266.19097783459, -103159.71561190077, -92029.30683246933, -187500.02235174447, 0.024, 0.964, -0.194, 192.0, 0.0, 0.0, 0.0, 0.0, 0.0, 0.0, 0.0, 0.0, 0.0, 1.7184679582152915E9, 0.0, 2024-06-15 11:12:38.215
86.0, 79627.82140109794, 61422.16908003916, 75303.98819494108, -187500.02235174447, 114644.310133971, -102377.80688736522, -91262.10555578537, -187500.02235174447, 0.024, 0.964, -0.194, 192.0, 0.0, 0.0, 0.0, 0.0, 0.0, 0.0, 0.0, 0.0, 0.0, 1.7184679582153E9, 0.0, 2024-06-15 11:12:38.215
87.0, 79563.15780438874, 61283.565912671795, 75910.21220805791, -187500.02235174447, 116029.78301403321, -101698.5597251129, -90488.57873542055, -187500.02235174447, 0.024, 0.964, -0.194, 192.0, 0.0, 0.0, 0.0, 0.0, 0.0, 0.0, 0.0, 0.0, 0.0, 1.718467958215309E9, 0.0, 2024-06-15 11:12:38.215
88.0, 79587.92353724522, 60755.125970259425, 74775.92823218444, -187500.02235174447, 115010.23054244883, -102307.93533419793, -91066.41603307916, -187500.02235174447, 0.024, 0.964, -0.194, 192.0, 0.0, 0.0, 0.0, 0.0, 0.0, 0.0, 0.0, 0.0, 0.0, 1.7184679582153175E9, 0.0, 2024-06-15 11:12:38.215
89.0, 79683.23137560266, 60769.63225241092, 73862.41243629604, -187500.02235174447, 113276.76335296195, -103196.08190012955, -92046.51767569991, -187500.02235174447, 0.024, 0.964, -0.194, 192.0, 0.0, 0.0, 0.0, 0.0, 0.0, 0.0, 0.0, 0.0, 0.0, 1.718467958215326E9, 0.0, 2024-06-15 11:12:38.215
90.0, 79675.63178248785, 61378.180846951116, 75056.55438382083, -187500.02235174447, 114268.75612363293, -102602.84425054125, -91489.31103817356, -187500.02235174447, 0.026000000000000002, 0.968, -0.192, 192.0, 0.0, 208.0, 30.0, 64.0, 250.0, 0.0, 0.0, 0.0, 0.0, 1.718467958215335E9, 0.0, 2024-06-15 11:12:38.215
91.0, 79598.3841536503, 61360.59002406479, 75947.04788292026, -187500.02235174447, 115926.67441686087, -101761.90456889923, -90558.24912288775, -187500.02235174447, 0.026000000000000002, 0.968, -0.192, 192.0, 0.0, 0.0, 0.0, 0.0, 0.0, 0.0, 0.0, 0.0, 0.0, 1.7184679582153437E9, 0.0, 2024-06-15 11:12:38.215
92.0, 79591.92449950273, 60856.96051799781, 75051.88286922967, -187500.02235174447, 115354.76033148293, -102135.96101235879, -90877.99082732091, -187500.02235174447, 0.026000000000000002, 0.968, -0.192, 192.0, 0.0, 0.0, 0.0, 0.0, 0.0, 0.0, 0.0, 0.0, 0.0, 1.7184679582153523E9, 0.0, 2024-06-15 11:12:38.215
93.0, 79678.33634356695, 60694.10570789644, 73851.08010185721, -187500.02235174447, 113430.49865132554, -103134.23462322172, -91952.55094200981, -187500.02235174447, 0.026000000000000002, 0.968, -0.192, 192.0, 0.0, 0.0, 0.0, 0.0, 0.0, 0.0, 0.0, 0.0, 0.0, 1.718467958215361E9, 0.0, 2024-06-15 11:12:38.215
94.0, 79700.9563089557, 61288.37153772969, 74759.38794128751, -187500.02235174447, 113935.2904481042, -102799.09256685885, -91675.50106948627, -187500.02235174447, 0.026000000000000002, 0.968, -0.192, 192.0, 0.0, 0.0, 0.0, 0.0, 0.0, 0.0, 0.0, 0.0, 0.0, 1.7184679582153697E9, 0.0, 2024-06-15 11:12:38.215
95.0, 79633.9457790787, 61413.742472379505, 75901.22680678687, -187500.02235174447, 115762.88083349238, -101864.23085501563, -90664.68812998393, -187500.02235174447, 0.026000000000000002, 0.968, -0.192, 192.0, 0.0, 0.0, 0.0, 0.0, 0.0, 0.0, 0.0, 0.0, 0.0, 1.718467958215396E9, 0.0, 2024-06-15 11:12:38.215
96.0, 79604.8885112868, 60951.508397043755, 75312.68302353419, -187500.02235174447, 115667.17066373477, -101979.87878082738, -90708.38579039405, -187500.02235174447, 0.026000000000000002, 0.968, -0.192, 192.0, 0.0, 0.0, 0.0, 0.0, 0.0, 0.0, 0.0, 0.0, 0.0, 1.7184679582154212E9, 0.0, 2024-06-15 11:12:38.215
97.0, 79692.28383210706, 60651.816207387, 73934.4968121644, -187500.02235174447, 113688.39307885089, -103010.40595893931, -91799.75441691333, -187500.02235174447, 0.026000000000000002, 0.968, -0.192, 192.0, 0.0, 0.0, 0.0, 0.0, 0.0, 0.0, 0.0, 0.0, 0.0, 1.7184679582154298E9, 0.0, 2024-06-15 11:12:38.215
98.0, 79758.02031255011, 61208.3969960686, 74487.34485952197, -187500.02235174447, 113638.68279918228, -102979.38173763535, -91846.00017619136, -187500.02235174447, 0.026000000000000002, 0.968, -0.192, 192.0, 0.0, 0.0, 0.0, 0.0, 0.0, 0.0, 0.0, 0.0, 0.0, 1.7184679582154386E9, 0.0, 2024-06-15 11:12:38.215
99.0, 79693.82610247447, 61480.03774643395, 75818.65946276898, -187500.02235174447, 115512.27307465949, -102000.93412410429, -90808.90158520956, -187500.02235174447, 0.026000000000000002, 0.968, -0.192, 192.0, 0.0, 0.0, 0.0, 0.0, 0.0, 0.0, 0.0, 0.0, 0.0, 1.7184679582154472E9, 0.0, 2024-06-15 11:12:38.215
100.0, 79644.47345071715, 61077.28166309377, 75535.77578494261, -187500.02235174447, 115843.86120365397, -101910.02957940455, -90628.70182141088, -187500.02235174447, 0.026000000000000002, 0.968, -0.192, 192.0, 0.0, 208.0, 30.0, 64.0, 250.0, 0.0, 0.0, 0.0, 0.0, 1.718467958215456E9, 0.0, 2024-06-15 11:12:38.215
101.0, 79697.78236124305, 60657.314736523, 74093.57417745283, -187500.02235174447, 113974.42835264545, -102893.95337032717, -91650.06478429613, -187500.02235174447, 0.026000000000000002, 0.968, -0.192, 192.0, 0.0, 0.0, 0.0, 0.0, 0.0, 0.0, 0.0, 0.0, 0.0, 1.7184679582154648E9, 0.0, 2024-06-15 11:12:38.215
102.0, 79768.48092895519, 61093.86665747961, 74232.55732447593, -187500.02235174447, 113382.42004900219, -103159.42503922284, -92006.28453568036, -187500.02235174447, 0.026000000000000002, 0.968, -0.192, 192.0, 0.0, 0.0, 0.0, 0.0, 0.0, 0.0, 0.0, 0.0, 0.0, 1.7184679582154734E9, 0.0, 2024-06-15 11:12:38.215
103.0, 79708.89117823735, 61484.575150558376, 75674.60246975452, -187500.02235174447, 115212.82675419173, -102178.63049252397, -90988.74372109697, -187500.02235174447, 0.026000000000000002, 0.968, -0.192, 192.0, 0.0, 0.0, 0.0, 0.0, 0.0, 0.0, 0.0, 0.0, 0.0, 1.7184679582154822E9, 0.0, 2024-06-15 11:12:38.215
104.0, 79659.11384333538, 61165.28048101431, 75718.09896446455, -187500.02235174447, 115989.46046703584, -101841.1862064822, -90552.63883502947, -187500.02235174447, 0.026000000000000002, 0.968, -0.192, 192.0, 0.0, 0.0, 0.0, 0.0, 0.0, 0.0, 0.0, 0.0, 0.0, 1.7184679582154908E9, 0.0, 2024-06-15 11:12:38.215
105.0, 79704.82316074648, 60683.84625719146, 74308.0391655015, -187500.02235174447, 114353.73745605201, -102714.0441792064, -91439.60075850497, -187500.02235174447, 0.026000000000000002, 0.968, -0.192, 192.0, 0.0, 0.0, 0.0, 0.0, 0.0, 0.0, 0.0, 0.0, 0.0, 1.7184679582154996E9, 0.0, 2024-06-15 11:12:38.215
106.0, 79787.6363739534, 60986.26535967176, 74038.83475528179, -187500.02235174447, 113286.26284435546, -103213.47155731577, -92036.07941103929, -187500.02235174447, 0.026000000000000002, 0.968, -0.192, 192.0, 0.0, 0.0, 0.0, 0.0, 0.0, 0.0, 0.0, 0.0, 0.0, 1.7184679582155085E9, 0.0, 2024-06-15 11:12:38.215
107.0, 79754.44403343726, 61494.99106347455, 75475.13550223535, -187500.02235174447, 114904.61854989751, -102329.84004376412, -91142.4566677161, -187500.02235174447, 0.026000000000000002, 0.968, -0.192, 192.0, 0.0, 0.0, 0.0, 0.0, 0.0, 0.0, 0.0, 0.0, 0.0, 1.718467958215517E9, 0.0, 2024-06-15 11:12:38.215
108.0, 79694.89898620833, 61275.385174201154, 75844.94511424842, -187500.02235174447, 116052.4923863998, -101795.25337162655, -90509.38820950846, -187500.02235174447, 0.026000000000000002, 0.968, -0.192, 192.0, 0.0, 0.0, 0.0, 0.0, 0.0, 0.0, 0.0, 0.0, 0.0, 1.7184679582155256E9, 0.0, 2024-06-15 11:12:38.215
109.0, 79739.93775128576, 60766.92769133183, 74561.84322379151, -187500.02235174447, 114738.07570196102, -102537.28658405383, -91241.51959914203, -187500.02235174447, 0.026000000000000002, 0.968, -0.192, 192.0, 0.0, 0.0, 0.0, 0.0, 0.0, 0.0, 0.0, 0.0, 0.0, 1.7184679582155344E9, 0.0, 2024-06-15 11:12:38.215
110.0, 79826.79663023909, 60900.50171619675, 73908.3452711517, -187500.02235174447, 113251.77410266091, -103271.58609289958, -92070.45639401155, -187500.02235174447, 0.028, 0.964, -0.19, 192.0, 0.0, 224.0, 30.0, 32.0, 250.0, 16.0, 0.0, 0.0, 0.0, 1.7184679582155433E9, 0.0, 2024-06-15 11:12:38.215
111.0, 79809.09404863049, 61478.94251095564, 75241.58212442185, -187500.02235174447, 114545.22485080063, -102542.31572655628, -91356.72049006469, -187500.02235174447, 0.028, 0.964, -0.19, 192.0, 0.0, 0.0, 0.0, 0.0, 0.0, 0.0, 0.0, 0.0, 0.0, 1.718467958215552E9, 0.0, 2024-06-15 11:12:38.215
112.0, 79732.94165527125, 61371.29650965888, 75931.35695831264, -187500.02235174447, 116014.44971733687, -101814.45352011366, -90529.6165382405, -187500.02235174447, 0.028, 0.964, -0.19, 192.0, 0.0, 0.0, 0.0, 0.0, 0.0, 0.0, 0.0, 0.0, 0.0, 1.718467958215561E9, 0.0, 2024-06-15 11:12:38.215
113.0, 79752.38767294737, 60854.92650925238, 74841.8658783276, -187500.02235174447, 115090.3168428322, -102365.55813140371, -91044.19839909059, -187500.02235174447, 0.028, 0.964, -0.19, 192.0, 0.0, 0.0, 0.0, 0.0, 0.0, 0.0, 0.0, 0.0, 0.0, 1.7184679582155695E9, 0.0, 2024-06-15 11:12:38.215
114.0, 79850.22125842825, 60828.260878117195, 73846.72151168842, -187500.02235174447, 113276.27161458394, -103313.83088992011, -92080.84995518326, -187500.02235174447, 0.028, 0.964, -0.19, 192.0, 0.0, 0.0, 0.0, 0.0, 0.0, 0.0, 0.0, 0.0, 0.0, 1.718467958215578E9, 0.0, 2024-06-15 11:12:38.215
115.0, 79842.91223799136, 61415.91059159167, 74974.81405434776, -187500.02235174447, 114150.38128499762, -102787.67082544218, -91593.55957431311, -187500.02235174447, 0.028, 0.964, -0.19, 192.0, 0.0, 0.0, 0.0, 0.0, 0.0, 0.0, 0.0, 0.0, 0.0, 1.718467958215587E9, 0.0, 2024-06-15 11:12:38.215
116.0, 79767.98919057718, 61429.83572838733, 75935.64849324805, -187500.02235174447, 115864.04482889711, -101931.77782675956, -90646.09147859711, -187500.02235174447, 0.028, 0.964, -0.19, 192.0, 0.0, 0.0, 0.0, 0.0, 0.0, 0.0, 0.0, 0.0, 0.0, 1.7184679582155955E9, 0.0, 2024-06-15 11:12:38.215
117.0, 79751.4265479358, 60935.05751312465, 75114.31129149333, -187500.02235174447, 115407.488096653, -102227.33494369208, -90881.58945817822, -187500.02235174447, 0.028, 0.964, -0.19, 192.0, 0.0, 0.0, 0.0, 0.0, 0.0, 0.0, 0.0, 0.0, 0.0, 1.7184679582156048E9, 0.0, 2024-06-15 11:12:38.215
118.0, 79853.23874392972, 60759.73042961722, 73868.00037240986, -187500.02235174447, 113438.3217618849, -103249.5696246111, -91985.45270984802, -187500.02235174447, 0.028, 0.964, -0.19, 192.0, 0.0, 0.0, 0.0, 0.0, 0.0, 0.0, 0.0, 0.0, 0.0, 1.7184679582156136E9, 0.0, 2024-06-15 11:12:38.215
119.0, 79882.4524739328, 61340.8757854552, 74705.02849877221, -187500.02235174447, 113818.36847285849, -102988.00951099509, -91788.93617259696, -187500.02235174447, 0.028, 0.964, -0.19, 192.0, 0.0, 0.0, 0.0, 0.0, 0.0, 0.0, 0.0, 0.0, 0.0, 1.7184679582156222E9, 0.0, 2024-06-15 11:12:38.215
120.0, 79809.1834556083, 61493.091165195845, 75899.84099863065, -187500.02235174447, 115678.9500330627, -102049.32565085002, -90770.54599172426, -187500.02235174447, 0.028, 0.964, -0.19, 192.0, 0.0, 0.0, 0.0, 0.0, 0.0, 0.0, 0.0, 0.0, 0.0, 1.718467958215631E9, 0.0, 2024-06-15 11:12:38.215
121.0, 79774.85117612495, 61059.95906114091, 75386.35437325887, -187500.02235174447, 115691.71287914668, -102115.19624175981, -90757.64903517354, -187500.02235174447, 0.022, 0.964, -0.19, 192.0, 0.0, 176.0, 30.0, 32.0, 250.0, 16.0, 0.0, 0.0, 0.0, 1.7184679586943753E9, 0.0, 2024-06-15 11:12:38.694
122.0, 79845.03565371461, 60740.26206019665, 73984.11768485518, -187500.02235174447, 113720.66899784435, -103130.97126853124, -91835.96424293093, -187500.02235174447, 0.022, 0.964, -0.19, 192.0, 0.0, 0.0, 0.0, 0.0, 0.0, 0.0, 0.0, 0.0, 0.0, 1.7184679586945376E9, 0.0, 2024-06-15 11:12:38.694
123.0, 79894.52241593867, 61242.952792996504, 74437.47811764218, -187500.02235174447, 113553.88028071885, -103153.01008856417, -91938.93872963653, -187500.02235174447, 0.022, 0.964, -0.19, 192.0, 0.0, 0.0, 0.0, 0.0, 0.0, 0.0, 0.0, 0.0, 0.0, 1.7184679586945488E9, 0.0, 2024-06-15 11:12:38.694
124.0, 79834.30681637608, 61525.74706384505, 75794.18430259041, -187500.02235174447, 115445.37430350475, -102178.49638205724, -90901.99660086592, -187500.02235174447, 0.022, 0.964, -0.19, 192.0, 0.0, 0.0, 0.0, 0.0, 0.0, 0.0, 0.0, 0.0, 0.0, 1.7184679586945593E9, 0.0, 2024-06-15 11:12:38.694
125.0, 79782.09314132847, 61146.79558834978, 75583.27324191014, -187500.02235174447, 115892.74446877772, -102023.79995868207, -90655.9485979019, -187500.02235174447, 0.022, 0.964, -0.19, 192.0, 0.0, 0.0, 0.0, 0.0, 0.0, 0.0, 0.0, 0.0, 0.0, 1.7184679586945696E9, 0.0, 2024-06-15 11:12:38.694
126.0, 79846.57792408204, 60742.87721429792, 74139.68582626413, -187500.02235174447, 114039.78485343276, -103004.6615606143, -91680.06082535516, -187500.02235174447, 0.022, 0.964, -0.19, 192.0, 0.0, 0.0, 0.0, 0.0, 0.0, 0.0, 0.0, 0.0, 0.0, 1.7184679586946163E9, 0.0, 2024-06-15 11:12:38.694
127.0, 79915.2648347932, 61142.39229469208, 74203.85768459532, -187500.02235174447, 113345.6514293732, -103305.33722702709, -92076.22314408101, -187500.02235174447, 0.022, 0.964, -0.19, 192.0, 0.0, 0.0, 0.0, 0.0, 0.0, 0.0, 0.0, 0.0, 0.0, 1.7184679586946535E9, 0.0, 2024-06-15 11:12:38.694
128.0, 79848.41076712737, 61539.20281400714, 75644.74053916223, -187500.02235174447, 115147.22438421541, -102354.98575627635, -91088.03016996745, -187500.02235174447, 0.022, 0.964, -0.19, 192.0, 0.0, 0.0, 0.0, 0.0, 0.0, 0.0, 0.0, 0.0, 0.0, 1.718467958694668E9, 0.0, 2024-06-15 11:12:38.694
129.0, 79793.9842693787, 61249.07717097726, 75754.39819745996, -187500.02235174447, 115997.3282810841, -102000.28592351508, -90632.09928656809, -187500.02235174447, 0.022, 0.964, -0.19, 192.0, 0.0, 0.0, 0.0, 0.0, 0.0, 0.0, 0.0, 0.0, 0.0, 1.718467958694697E9, 0.0, 2024-06-15 11:12:38.694
130.0, 79853.01522648516, 60786.95485436379, 74369.21589007568, -187500.02235174447, 114402.3525002423, -102860.023422244, -91506.79010233762, -187500.02235174447, 0.022, 0.964, -0.19, 192.0, 0.0, 0.0, 0.0, 0.0, 0.0, 0.0, 0.0, 0.0, 0.0, 1.7184679586947083E9, 0.0, 2024-06-15 11:12:38.694
131.0, 79933.14623035744, 61042.12236906557, 74022.36151961822, -187500.02235174447, 113222.42626219109, -103415.57603068066, -92165.71952888007, -187500.02235174447, 0.02, 0.964, -0.19, 192.0, 0.0, 160.0, 30.0, 32.0, 250.0, 16.0, 0.0, 0.0, 0.0, 1.7184679586947424E9, 0.0, 2024-06-15 11:12:38.694
132.0, 79868.70615109279, 61521.14260448726, 75447.5087460886, -187500.02235174447, 114817.67026396636, -102518.86874662265, -91255.95882606016, -187500.02235174447, 0.02, 0.964, -0.19, 192.0, 0.0, 0.0, 0.0, 0.0, 0.0, 0.0, 0.0, 0.0, 0.0, 1.7184679586947763E9, 0.0, 2024-06-15 11:12:38.694
133.0, 79795.50418800167, 61323.03909337987, 75873.17536749547, -187500.02235174447, 116044.40105490698, -101940.83028326396, -90571.0343207162, -187500.02235174447, 0.02, 0.964, -0.19, 192.0, 0.0, 0.0, 0.0, 0.0, 0.0, 0.0, 0.0, 0.0, 0.0, 1.71846795869481E9, 0.0, 2024-06-15 11:12:38.694
134.0, 79826.66251977236, 60831.4571775743, 74629.14432634645, -187500.02235174447, 114794.22328403275, -102633.93552707857, -91252.47195392514, -187500.02235174447, 0.02, 0.964, -0.19, 192.0, 0.0, 0.0, 0.0, 0.0, 0.0, 0.0, 0.0, 0.0, 0.0, 1.7184679586948347E9, 0.0, 2024-06-15 11:12:38.694
135.0, 79938.44359379334, 60950.30140284317, 73895.51536983435, -187500.02235174447, 113178.68389829206, -103441.0123158708, -92165.78658411343, -187500.02235174447, 0.02, 0.964, -0.19, 192.0, 0.0, 0.0, 0.0, 0.0, 0.0, 0.0, 0.0, 0.0, 0.0, 1.7184679586948438E9, 0.0, 2024-06-15 11:12:38.694
136.0, 79912.02383184718, 61506.390453146756, 75208.0992112278, -187500.02235174447, 114411.1590875577, -102725.10829271178, -91465.37231986193, -187500.02235174447, 0.02, 0.964, -0.19, 192.0, 0.0, 0.0, 0.0, 0.0, 0.0, 0.0, 0.0, 0.0, 0.0, 1.718467958694873E9, 0.0, 2024-06-15 11:12:38.694
137.0, 79835.64792104339, 61416.73760613652, 75939.73886248337, -187500.02235174447, 115939.41491120041, -101980.3705192054, -90613.61439390355, -187500.02235174447, 0.02, 0.964, -0.19, 192.0, 0.0, 0.0, 0.0, 0.0, 0.0, 0.0, 0.0, 0.0, 0.0, 1.7184679586948824E9, 0.0, 2024-06-15 11:12:38.694
138.0, 79841.1464501794, 60931.168309589426, 74915.33606235219, -187500.02235174447, 115113.69676753244, -102472.62298734463, -91067.35480634628, -187500.02235174447, 0.02, 0.964, -0.19, 192.0, 0.0, 0.0, 0.0, 0.0, 0.0, 0.0, 0.0, 0.0, 0.0, 1.7184679586948917E9, 0.0, 2024-06-15 11:12:38.694
139.0, 79933.97324490228, 60879.356965942025, 73856.86920367113, -187500.02235174447, 113234.33974198578, -103419.77815863826, -92112.67883928762, -187500.02235174447, 0.02, 0.964, -0.19, 192.0, 0.0, 0.0, 0.0, 0.0, 0.0, 0.0, 0.0, 0.0, 0.0, 1.7184679586949162E9, 0.0, 2024-06-15 11:12:38.694
140.0, 79938.17537285989, 61452.50039726501, 74919.20291414297, -187500.02235174447, 113995.28253022225, -102959.64514728132, -91697.65164824149, -187500.02235174447, 0.02, 0.964, -0.19, 192.0, 0.0, 0.0, 0.0, 0.0, 0.0, 0.0, 0.0, 0.0, 0.0, 1.7184679586949255E9, 0.0, 2024-06-15 11:12:38.694
141.0, 79844.65567405889, 61479.814228989395, 75933.83800194717, -187500.02235174447, 115771.12862719639, -102063.20608415677, -90706.32942990416, -187500.02235174447, 0.024, 0.966, -0.188, 192.0, 0.0, 192.0, 30.0, 48.0, 250.0, 32.0, 0.0, 0.0, 0.0, 1.7184679586949346E9, 0.0, 2024-06-15 11:12:38.694
142.0, 79819.6440720134, 61008.46064191588, 75176.42678933464, -187500.02235174447, 115423.69311138311, -102290.3445113116, -90871.70998712898, -187500.02235174447, 0.024, 0.966, -0.188, 192.0, 0.0, 0.0, 0.0, 0.0, 0.0, 0.0, 0.0, 0.0, 0.0, 1.7184679586949444E9, 0.0, 2024-06-15 11:12:38.694
143.0, 79902.32317475358, 60797.05784285758, 73887.22287264143, -187500.02235174447, 113436.71243628413, -103284.2818837502, -91946.47126751796, -187500.02235174447, 0.024, 0.966, -0.188, 192.0, 0.0, 0.0, 0.0, 0.0, 0.0, 0.0, 0.0, 0.0, 0.0, 1.7184679586949737E9, 0.0, 2024-06-15 11:12:38.694
144.0, 79934.48733502477, 61340.94284068857, 74602.81397137808, -187500.02235174447, 113636.11234856992, -103137.56503314555, -91866.25085666786, -187500.02235174447, 0.024, 0.966, -0.188, 192.0, 0.0, 0.0, 0.0, 0.0, 0.0, 0.0, 0.0, 0.0, 0.0, 1.7184679586949832E9, 0.0, 2024-06-15 11:12:38.694
145.0, 79858.11142422097, 61523.26602021051, 75840.4524136129, -187500.02235174447, 115500.24783614253, -102226.17265298041, -90873.98986506341, -187500.02235174447, 0.024, 0.966, -0.188, 192.0, 0.0, 0.0, 0.0, 0.0, 0.0, 0.0, 0.0, 0.0, 0.0, 1.7184679586949923E9, 0.0, 2024-06-15 11:12:38.694
146.0, 79804.57899625052, 61103.38850061757, 75403.11818160037, -187500.02235174447, 115614.0852706534, -102233.12404550602, -90796.85399494815, -187500.02235174447, 0.024, 0.966, -0.188, 192.0, 0.0, 0.0, 0.0, 0.0, 0.0, 0.0, 0.0, 0.0, 0.0, 1.7184679586950011E9, 0.0, 2024-06-15 11:12:38.695
147.0, 79867.9014882924, 60771.6439094119, 73981.79310343183, -187500.02235174447, 113635.46414798072, -103254.24113920226, -91881.40533940856, -187500.02235174447, 0.024, 0.966, -0.188, 192.0, 0.0, 0.0, 0.0, 0.0, 0.0, 0.0, 0.0, 0.0, 0.0, 1.718467958695026E9, 0.0, 2024-06-15 11:12:38.695
148.0, 79922.23857906325, 61245.70205756451, 74346.50651770909, -187500.02235174447, 113320.66217907217, -103359.58491082012, -92075.35142604726, -187500.02235174447, 0.024, 0.966, -0.188, 192.0, 0.0, 0.0, 0.0, 0.0, 0.0, 0.0, 0.0, 0.0, 0.0, 1.718467958695035E9, 0.0, 2024-06-15 11:12:38.695
149.0, 79863.27467719016, 61558.55942470544, 75751.20189800285, -187500.02235174447, 115226.28250435383, -102357.48915165535, -91014.47057896502, -187500.02235174447, 0.024, 0.966, -0.188, 192.0, 0.0, 0.0, 0.0, 0.0, 0.0, 0.0, 0.0, 0.0, 0.0, 1.718467958695045E9, 0.0, 2024-06-15 11:12:38.695
150.0, 79815.01726091115, 61214.11904264916, 75624.86983834146, -187500.02235174447, 115782.10333372395, -102129.61311693348, -90691.51022333029, -187500.02235174447, 0.024, 0.966, -0.188, 192.0, 0.0, 0.0, 0.0, 0.0, 0.0, 0.0, 0.0, 0.0, 0.0, 1.718467958695054E9, 0.0, 2024-06-15 11:12:38.695
151.0, 79875.16580524038, 60799.941217892316, 74186.22215822007, -187500.02235174447, 113968.99687874281, -103079.13757313938, -91680.82078466663, -187500.02235174447, 0.032, 0.96, -0.19, 192.0, 1.0, 0.0, 30.0, 0.0, 250.0, 16.0, 0.0, 0.0, 0.0, 1.7184679586950629E9, 0.0, 2024-06-15 11:12:38.695
152.0, 79948.47952705379, 61156.92092858803, 74136.62363727375, -187500.02235174447, 113123.65390344309, -103454.53512126626, -92159.48339217703, -187500.02235174447, 0.032, 0.96, -0.19, 192.0, 0.0, 0.0, 0.0, 0.0, 0.0, 0.0, 0.0, 0.0, 0.0, 1.7184679586950717E9, 0.0, 2024-06-15 11:12:38.695
153.0, 79897.94223284033, 61582.60990173935, 75583.9437942438, -187500.02235174447, 114875.87420652798, -102543.9027004126, -91215.21159591814, -187500.02235174447, 0.032, 0.96, -0.19, 192.0, 0.0, 0.0, 0.0, 0.0, 0.0, 0.0, 0.0, 0.0, 0.0, 1.7184679586950808E9, 0.0, 2024-06-15 11:12:38.695
154.0, 79822.72861274822, 61312.04203510786, 75784.66245945245, -187500.02235174447, 115849.85147116799, -102098.07480550704, -90664.64342649501, -187500.02235174447, 0.032, 0.96, -0.19, 192.0, 0.0, 0.0, 0.0, 0.0, 0.0, 0.0, 0.0, 0.0, 0.0, 1.7184679586951103E9, 0.0, 2024-06-15 11:12:38.695
155.0, 79858.69256957682, 60834.049979931115, 74426.9727977482, -187500.02235174447, 114334.47025233154, -102900.4353762192, -91479.18569793532, -187500.02235174447, 0.032, 0.96, -0.19, 192.0, 0.0, 0.0, 0.0, 0.0, 0.0, 0.0, 0.0, 0.0, 0.0, 1.7184679586951208E9, 0.0, 2024-06-15 11:12:38.695
156.0, 79935.15788735842, 61035.99799108482, 73977.54627198532, -187500.02235174447, 113031.8776407096, -103503.79836604577, -92187.78070065746, -187500.02235174447, 0.032, 0.96, -0.19, 192.0, 0.0, 0.0, 0.0, 0.0, 0.0, 0.0, 0.0, 0.0, 0.0, 1.71846795869513E9, 0.0, 2024-06-15 11:12:38.695
157.0, 79891.2590612482, 61537.772302362006, 75361.99097180259, -187500.02235174447, 114526.89642034727, -102683.04230964689, -91357.32398716499, -187500.02235174447, 0.032, 0.96, -0.19, 192.0, 0.0, 0.0, 0.0, 0.0, 0.0, 0.0, 0.0, 0.0, 0.0, 1.71846795869514E9, 0.0, 2024-06-15 11:12:38.695
158.0, 79823.15329589287, 61386.272178443935, 75864.56994588017, -187500.02235174447, 115834.36171226046, -102091.16811647036, -90657.42381303594, -187500.02235174447, 0.032, 0.96, -0.19, 192.0, 0.0, 0.0, 0.0, 0.0, 0.0, 0.0, 0.0, 0.0, 0.0, 1.7184679586951663E9, 0.0, 2024-06-15 11:12:38.695
159.0, 79840.7441187792, 60899.00414931824, 74686.05186772965, -187500.02235174447, 114698.93779741977, -102715.36293212927, -91266.06181455396, -187500.02235174447, 0.032, 0.96, -0.19, 192.0, 0.0, 0.0, 0.0, 0.0, 0.0, 0.0, 0.0, 0.0, 0.0, 1.718467958695176E9, 0.0, 2024-06-15 11:12:38.695
160.0, 79933.63796873546, 60949.29557434268, 73857.94208740498, -187500.02235174447, 112994.93020712498, -103556.95081436049, -92213.59696550334, -187500.02235174447, 0.032, 0.96, -0.19, 192.0, 0.0, 0.0, 0.0, 0.0, 0.0, 0.0, 0.0, 0.0, 0.0, 1.7184679586951847E9, 0.0, 2024-06-15 11:12:38.695
161.0, 79911.04035509114, 61502.03186297797, 75096.38519244018, -187500.02235174447, 114098.36877565013, -102938.25452783759, -91614.36904840101, -187500.02235174447, 0.032, 0.96, -0.19, 192.0, 0.0, 0.0, 0.0, 0.0, 0.0, 0.0, 0.0, 0.0, 0.0, 1.7184679586952145E9, 0.0, 2024-06-15 11:12:38.695
162.0, 79846.10853744848, 61468.772467228475, 75910.39102201356, -187500.02235174447, 115687.77897212256, -102193.62851305348, -90767.01441610033, -187500.02235174447, 0.03, 0.962, -0.188, 192.0, 0.0, 240.0, 30.0, 16.0, 250.0, 32.0, 0.0, 0.0, 0.0, 1.7184679586952243E9, 0.0, 2024-06-15 11:12:38.695
163.0, 79841.10174669049, 60994.714319075865, 74971.90832756857, -187500.02235174447, 114992.97499572934, -102605.54881162033, -91138.14278103624, -187500.02235174447, 0.03, 0.962, -0.188, 192.0, 0.0, 0.0, 0.0, 0.0, 0.0, 0.0, 0.0, 0.0, 0.0, 1.718467958695234E9, 0.0, 2024-06-15 11:12:38.695
164.0, 79927.44653552133, 60887.29183522366, 73841.62531395261, -187500.02235174447, 113061.20312943497, -103567.29967204329, -92198.12955834027, -187500.02235174447, 0.03, 0.962, -0.188, 192.0, 0.0, 0.0, 0.0, 0.0, 0.0, 0.0, 0.0, 0.0, 0.0, 1.7184679586952436E9, 0.0, 2024-06-15 11:12:38.695
165.0, 79923.80320117512, 61446.77835068445, 74828.11955548759, -187500.02235174447, 113702.72054704673, -103164.4988852142, -91841.7756964893, -187500.02235174447, 0.03, 0.962, -0.188, 192.0, 0.0, 0.0, 0.0, 0.0, 0.0, 0.0, 0.0, 0.0, 0.0, 1.7184679586952555E9, 0.0, 2024-06-15 11:12:38.695
166.0, 79831.93753146382, 61516.76166257402, 75901.00328934232, -187500.02235174447, 115524.16420270971, -102248.65850790245, -90831.20862617595, -187500.02235174447, 0.03, 0.962, -0.188, 192.0, 0.0, 0.0, 0.0, 0.0, 0.0, 0.0, 0.0, 0.0, 0.0, 1.718467958695267E9, 0.0, 2024-06-15 11:12:38.695
167.0, 79807.41766779634, 61067.15632285552, 75225.04183352493, -187500.02235174447, 115290.56612140729, -102421.54925126425, -90937.80409548333, -187500.02235174447, 0.03, 0.962, -0.188, 192.0, 0.0, 0.0, 0.0, 0.0, 0.0, 0.0, 0.0, 0.0, 0.0, 1.7184679586952817E9, 0.0, 2024-06-15 11:12:38.695
168.0, 79899.9091863524, 60825.51161354919, 73884.56301505126, -187500.02235174447, 113266.86153016824, -103439.42534201448, -92035.475913939, -187500.02235174447, 0.03, 0.962, -0.188, 192.0, 0.0, 0.0, 0.0, 0.0, 0.0, 0.0, 0.0, 0.0, 0.0, 1.7184679586952925E9, 0.0, 2024-06-15 11:12:38.695
169.0, 79938.13066937098, 61355.516178073434, 74535.75873801217, -187500.02235174447, 113354.16744401067, -103340.76474198875, -92010.48666363796, -187500.02235174447, 0.03, 0.962, -0.188, 192.0, 0.0, 0.0, 0.0, 0.0, 0.0, 0.0, 0.0, 0.0, 0.0, 1.7184679586953113E9, 0.0, 2024-06-15 11:12:38.695
170.0, 79861.37477891146, 61568.37184052132, 75822.32514885964, -187500.02235174447, 115268.48259788545, -102377.60572166512, -90970.5717528548, -187500.02235174447, 0.03, 0.962, -0.188, 192.0, 0.0, 0.0, 0.0, 0.0, 0.0, 0.0, 0.0, 0.0, 0.0, 1.718467958695341E9, 0.0, 2024-06-15 11:12:38.695
171.0, 79820.5381417916, 61178.31154803176, 75457.96936249368, -187500.02235174447, 115508.65209205772, -102328.29777339671, -90835.05312622228, -187500.02235174447, 0.03, 0.962, -0.188, 192.0, 0.0, 0.0, 0.0, 0.0, 0.0, 0.0, 0.0, 0.0, 0.0, 1.7184679586953728E9, 0.0, 2024-06-15 11:12:38.695
172.0, 79891.79550311512, 60824.88576470444, 74029.17880167709, -187500.02235174447, 113566.93369948074, -103311.17103232993, -91877.20321145096, -187500.02235174447, 0.026000000000000002, 0.968, -0.192, 192.0, 0.0, 208.0, 30.0, 64.0, 250.0, 0.0, 0.0, 0.0, 0.0, 1.7184679586953816E9, 0.0, 2024-06-15 11:12:38.695
173.0, 79941.28226533918, 61259.26956644888, 74285.0839239459, -187500.02235174447, 113112.14275504861, -103470.00252842934, -92126.82749352783, -187500.02235174447, 0.026000000000000002, 0.968, -0.192, 192.0, 0.0, 0.0, 0.0, 0.0, 0.0, 0.0, 0.0, 0.0, 0.0, 1.7184679586953905E9, 0.0, 2024-06-15 11:12:38.695
174.0, 79886.90047107941, 61606.95095145118, 75699.05527818862, -187500.02235174447, 114994.38315563001, -102494.41593818855, -91095.8532805268, -187500.02235174447, 0.026000000000000002, 0.968, -0.192, 192.0, 0.0, 0.0, 0.0, 0.0, 0.0, 0.0, 0.0, 0.0, 0.0, 1.7184679586953993E9, 0.0, 2024-06-15 11:12:38.695
175.0, 79839.9394559788, 61293.93712209906, 75658.86684165799, -187500.02235174447, 115665.15900673378, -102223.66925760142, -90727.83180807017, -187500.02235174447, 0.026000000000000002, 0.968, -0.192, 192.0, 0.0, 0.0, 0.0, 0.0, 0.0, 0.0, 0.0, 0.0, 0.0, 1.718467958695408E9, 0.0, 2024-06-15 11:12:38.695
176.0, 79897.78577062914, 60861.810846544606, 74237.7205774451, -187500.02235174447, 113907.14960183497, -103146.28221348312, -91686.83340392512, -187500.02235174447, 0.026000000000000002, 0.968, -0.192, 192.0, 0.0, 0.0, 0.0, 0.0, 0.0, 0.0, 0.0, 0.0, 0.0, 1.7184679586954167E9, 0.0, 2024-06-15 11:12:38.695
177.0, 79984.28702167119, 61188.503943503376, 74088.09800006128, -187500.02235174447, 112916.90026723151, -103614.5512598218, -92261.31793991542, -187500.02235174447, 0.026000000000000002, 0.968, -0.192, 192.0, 0.0, 0.0, 0.0, 0.0, 0.0, 0.0, 0.0, 0.0, 0.0, 1.7184679586954253E9, 0.0, 2024-06-15 11:12:38.695
178.0, 79925.83720992056, 61622.708931292174, 75552.87486945091, -187500.02235174447, 114654.77075037609, -102676.35913805476, -91292.61568696686, -187500.02235174447, 0.026000000000000002, 0.968, -0.192, 192.0, 0.0, 0.0, 0.0, 0.0, 0.0, 0.0, 0.0, 0.0, 0.0, 1.7184679586954339E9, 0.0, 2024-06-15 11:12:38.695
179.0, 79865.68866559133, 61391.25661745747, 75829.0530239407, -187500.02235174447, 115724.90521966282, -102182.02795768119, -90692.18077566395, -187500.02235174447, 0.026000000000000002, 0.968, -0.192, 192.0, 0.0, 0.0, 0.0, 0.0, 0.0, 0.0, 0.0, 0.0, 0.0, 1.7184679586954424E9, 0.0, 2024-06-15 11:12:38.695
180.0, 79905.09479106603, 60919.4783472393, 74504.26513007464, -187500.02235174447, 114270.45485621154, -102966.06009793999, -91484.1924886933, -187500.02235174447, 0.026000000000000002, 0.968, -0.192, 192.0, 0.0, 0.0, 0.0, 0.0, 0.0, 0.0, 0.0, 0.0, 0.0, 1.718467958695451E9, 0.0, 2024-06-15 11:12:38.695
181.0, 79985.13638796049, 61087.38465158757, 73946.14207102562, -187500.02235174447, 112835.67402788092, -103637.79707405533, -92262.88256202728, -187500.02235174447, 0.026000000000000002, 0.968, -0.192, 192.0, 0.0, 0.0, 0.0, 0.0, 0.0, 0.0, 0.0, 0.0, 0.0, 1.7184679586954598E9, 0.0, 2024-06-15 11:12:38.695
182.0, 79958.40370159195, 61623.93827723721, 75323.8812475063, -187500.02235174447, 114259.90483282863, -102853.74258205207, -91475.18473567782, -187500.02235174447, 0.022, 0.968, -0.194, 192.0, 0.0, 176.0, 30.0, 64.0, 249.0, 240.0, 0.0, 0.0, 0.0, 1.7184679586954684E9, 0.0, 2024-06-15 11:12:38.695
183.0, 79889.53797692513, 61499.394357132245, 75919.06349886222, -187500.02235174447, 115671.12692250335, -102192.60033280854, -90706.75411304881, -187500.02235174447, 0.022, 0.968, -0.194, 192.0, 0.0, 0.0, 0.0, 0.0, 0.0, 0.0, 0.0, 0.0, 0.0, 1.7184679586954768E9, 0.0, 2024-06-15 11:12:38.695
184.0, 79897.11521829548, 61002.2468569573, 74780.39858107551, -187500.02235174447, 114638.81160483499, -102760.2005315066, -91254.34950045939, -187500.02235174447, 0.022, 0.968, -0.194, 192.0, 0.0, 0.0, 0.0, 0.0, 0.0, 0.0, 0.0, 0.0, 0.0, 1.7184679586954854E9, 0.0, 2024-06-15 11:12:38.695
185.0, 79991.37252466351, 61017.24487748682, 73854.05288386976, -187500.02235174447, 112845.26292625224, -103659.5229696659, -92261.13912595977, -187500.02235174447, 0.022, 0.968, -0.194, 192.0, 0.0, 0.0, 0.0, 0.0, 0.0, 0.0, 0.0, 0.0, 0.0, 1.718467958695494E9, 0.0, 2024-06-15 11:12:38.695
186.0, 79968.28317264118, 61586.007366896556, 75058.52133733289, -187500.02235174447, 113854.26537445371, -103094.44851809127, -91723.37850610954, -187500.02235174447, 0.022, 0.968, -0.194, 192.0, 0.0, 0.0, 0.0, 0.0, 0.0, 0.0, 0.0, 0.0, 0.0, 1.7184679586955023E9, 0.0, 2024-06-15 11:12:38.695
187.0, 79878.6079738865, 61561.956889862646, 75955.04980743525, -187500.02235174447, 115557.91533683722, -102249.7313916363, -90773.71993943691, -187500.02235174447, 0.022, 0.968, -0.194, 192.0, 0.0, 0.0, 0.0, 0.0, 0.0, 0.0, 0.0, 0.0, 0.0, 1.7184679586955109E9, 0.0, 2024-06-15 11:12:38.695
188.0, 79876.84218607453, 61085.93178819797, 75056.48732858746, -187500.02235174447, 114973.4395710754, -102596.25048592692, -91071.48987907052, -187500.02235174447, 0.022, 0.968, -0.194, 192.0, 0.0, 0.0, 0.0, 0.0, 0.0, 0.0, 0.0, 0.0, 0.0, 1.7184679586955197E9, 0.0, 2024-06-15 11:12:38.695
189.0, 79969.42311160841, 60938.14205385948, 73855.81867168173, -187500.02235174447, 112985.00603258683, -103578.87787567114, -92149.62627287225, -187500.02235174447, 0.022, 0.968, -0.194, 192.0, 0.0, 0.0, 0.0, 0.0, 0.0, 0.0, 0.0, 0.0, 0.0, 1.7184679586955283E9, 0.0, 2024-06-15 11:12:38.695
190.0, 79984.08585597109, 61493.04646170694, 74766.36168555757, -187500.02235174447, 113494.80462012347, -103242.30530766313, -91866.72024330143, -187500.02235174447, 0.022, 0.968, -0.194, 192.0, 0.0, 0.0, 0.0, 0.0, 0.0, 0.0, 0.0, 0.0, 0.0, 1.7184679586955373E9, 0.0, 2024-06-15 11:12:38.695
191.0, 79916.98591911625, 61609.25318113008, 75904.08783007716, -187500.02235174447, 115360.5270815524, -102329.48241585284, -90861.67405386854, -187500.02235174447, 0.022, 0.968, -0.194, 192.0, 0.0, 0.0, 0.0, 0.0, 0.0, 0.0, 0.0, 0.0, 0.0, 1.718467958695546E9, 0.0, 2024-06-15 11:12:38.695
192.0, 79900.69149740833, 61178.24449279839, 75303.22823562959, -187500.02235174447, 115242.91220222857, -102480.31198743725, -90938.72051700599, -187500.02235174447, 0.022, 0.968, -0.19, 192.0, 0.0, 176.0, 30.0, 64.0, 250.0, 16.0, 0.0, 0.0, 0.0, 1.7184679586955545E9, 0.0, 2024-06-15 11:12:38.695
193.0, 79972.59705932105, 60889.90698932493, 73930.67466386255, -187500.02235174447, 113222.09098602427, -103489.13562168309, -92021.39431493216, -187500.02235174447, 0.022, 0.968, -0.19, 192.0, 0.0, 0.0, 0.0, 0.0, 0.0, 0.0, 0.0, 0.0, 0.0, 1.7184679586955628E9, 0.0, 2024-06-15 11:12:38.695
194.0, 80005.23060622581, 61389.91551279015, 74479.09706581797, -187500.02235174447, 113171.17371215508, -103441.34759203764, -92049.64691992366, -187500.02235174447, 0.022, 0.968, -0.19, 192.0, 0.0, 0.0, 0.0, 0.0, 0.0, 0.0, 0.0, 0.0, 0.0, 1.7184679586955712E9, 0.0, 2024-06-15 11:12:38.695
195.0, 79934.55439025813, 61633.23660293062, 75817.31835810165, -187500.02235174447, 115114.23320939938, -102453.82517025771, -90985.4803664065, -187500.02235174447, 0.022, 0.968, -0.19, 192.0, 0.0, 0.0, 0.0, 0.0, 0.0, 0.0, 0.0, 0.0, 0.0, 1.7184679586956003E9, 0.0, 2024-06-15 11:12:38.695
196.0, 79878.4515116753, 61245.70205756451, 75528.48911625017, -187500.02235174447, 115469.24596658302, -102340.14419795803, -90779.44198601747, -187500.02235174447, 0.022, 0.968, -0.19, 192.0, 0.0, 0.0, 0.0, 0.0, 0.0, 0.0, 0.0, 0.0, 0.0, 1.7184679586956105E9, 0.0, 2024-06-15 11:12:38.695
197.0, 79947.63016076449, 60862.302584922625, 74063.68989511608, -187500.02235174447, 113528.53340250652, -103324.67148598093, -91817.92638515549, -187500.02235174447, 0.022, 0.968, -0.19, 192.0, 0.0, 0.0, 0.0, 0.0, 0.0, 0.0, 0.0, 0.0, 0.0, 1.7184679586956196E9, 0.0, 2024-06-15 11:12:38.695
198.0, 80033.23734202831, 61295.27822676638, 74213.35717598881, -187500.02235174447, 112903.57862753615, -103587.5503525198, -92179.53290695345, -187500.02235174447, 0.022, 0.968, -0.19, 192.0, 0.0, 0.0, 0.0, 0.0, 0.0, 0.0, 0.0, 0.0, 0.0, 1.7184679586956284E9, 0.0, 2024-06-15 11:12:38.695
199.0, 79976.35215238955, 61678.36477498589, 75677.95523142282, -187500.02235174447, 114783.092115294, -102611.76259657892, -91155.24186554455, -187500.02235174447, 0.022, 0.968, -0.19, 192.0, 0.0, 0.0, 0.0, 0.0, 0.0, 0.0, 0.0, 0.0, 0.0, 1.7184679586956372E9, 0.0, 2024-06-15 11:12:38.695
200.0, 79927.13361109897, 61388.999091267484, 75726.90555177994, -187500.02235174447, 115559.61406941582, -102304.82844171864, -90747.05430830173, -187500.02235174447, 0.022, 0.968, -0.19, 192.0, 0.0, 0.0, 0.0, 0.0, 0.0, 0.0, 0.0, 0.0, 0.0, 1.718467958695646E9, 0.0, 2024-06-15 11:12:38.695
201.0, 79980.10724545804, 60937.247984081274, 74312.86714230385, -187500.02235174447, 113857.26050821073, -103189.89046691543, -91662.20178153536, -187500.02235174447, 0.022, 0.968, -0.19, 192.0, 0.0, 0.0, 0.0, 0.0, 0.0, 0.0, 0.0, 0.0, 0.0, 1.7184679586956756E9, 0.0, 2024-06-15 11:12:38.695
202.0, 80057.66779871796, 61215.81777522776, 74049.36242692023, -187500.02235174447, 112730.97845685226, -103693.6764351936, -92276.31596044493, -187500.02235174447, 0.022, 0.968, -0.19, 192.0, 0.0, 0.0, 0.0, 0.0, 0.0, 0.0, 0.0, 0.0, 0.0, 1.7184679586956847E9, 0.0, 2024-06-15 11:12:38.695
203.0, 80006.77287659323, 61675.52610344006, 75505.2209502722, -187500.02235174447, 114413.88600038124, -102781.36763350578, -91342.75064978012, -187500.02235174447, 0.022, 0.972, -0.186, 192.0, 0.0, 176.0, 30.0, 96.0, 250.0, 48.0, 0.0, 0.0, 0.0, 1.7184679586956935E9, 0.0, 2024-06-15 11:12:38.695
204.0, 79927.22301807678, 61448.0524001184, 75864.36878018007, -187500.02235174447, 115597.47792452312, -102253.21826377134, -90704.54129034774, -187500.02235174447, 0.022, 0.972, -0.186, 192.0, 0.0, 0.0, 0.0, 0.0, 0.0, 0.0, 0.0, 0.0, 0.0, 1.7184679586957183E9, 0.0, 2024-06-15 11:12:38.695
205.0, 79956.79437599116, 60954.81645522314, 74560.36800865746, -187500.02235174447, 114238.82713780727, -102992.8598395419, -91442.10415388396, -187500.02235174447, 0.022, 0.972, -0.186, 192.0, 0.0, 0.0, 0.0, 0.0, 0.0, 0.0, 0.0, 0.0, 0.0, 1.7184679586957273E9, 0.0, 2024-06-15 11:12:38.695
206.0, 80042.11098457707, 61088.79281148825, 73884.74182900689, -187500.02235174447, 112669.57821483353, -103760.93283425961, -92322.27114704504, -187500.02235174447, 0.022, 0.972, -0.186, 192.0, 0.0, 0.0, 0.0, 0.0, 0.0, 0.0, 0.0, 0.0, 0.0, 1.7184679586957364E9, 0.0, 2024-06-15 11:12:38.695
207.0, 80014.59598715258, 61639.47273963365, 75237.26823774198, -187500.02235174447, 114014.77325138728, -103024.6663719018, -91593.7160365243, -187500.02235174447, 0.022, 0.972, -0.186, 192.0, 0.0, 0.0, 0.0, 0.0, 0.0, 0.0, 0.0, 0.0, 0.0, 1.7184679586957457E9, 0.0, 2024-06-15 11:12:38.695
208.0, 79936.45428853683, 61529.233935980075, 75922.05863261923, -187500.02235174447, 115537.30702844943, -102310.10345341009, -90767.43909924498, -187500.02235174447, 0.022, 0.972, -0.186, 192.0, 0.0, 0.0, 0.0, 0.0, 0.0, 0.0, 0.0, 0.0, 0.0, 1.7184679586957548E9, 0.0, 2024-06-15 11:12:38.695
209.0, 79941.39402406145, 61032.06408406069, 74831.20409622241, -187500.02235174447, 114608.79321203152, -102833.60366029784, -91260.11625052885, -187500.02235174447, 0.022, 0.972, -0.186, 192.0, 0.0, 0.0, 0.0, 0.0, 0.0, 0.0, 0.0, 0.0, 0.0, 1.718467958695764E9, 0.0, 2024-06-15 11:12:38.695
210.0, 80040.23343804282, 60999.8999237895, 73812.76921186081, -187500.02235174447, 112736.70050343282, -103753.37794463373, -92286.64246638329, -187500.02235174447, 0.022, 0.972, -0.186, 192.0, 0.0, 0.0, 0.0, 0.0, 0.0, 0.0, 0.0, 0.0, 0.0, 1.718467958695773E9, 0.0, 2024-06-15 11:12:38.695
211.0, 80038.28883627521, 61580.59824473837, 74961.20184197449, -187500.02235174447, 113643.80134866254, -103219.55123180762, -91789.20439353042, -187500.02235174447, 0.022, 0.972, -0.186, 192.0, 0.0, 0.0, 0.0, 0.0, 0.0, 0.0, 0.0, 0.0, 0.0, 1.7184679586957817E9, 0.0, 2024-06-15 11:12:38.695
212.0, 79954.33568410107, 61593.763422222546, 75944.81270847472, -187500.02235174447, 115435.00309407749, -102337.43963687893, -90801.8831374506, -187500.02235174447, 0.022, 0.972, -0.186, 192.0, 0.0, 0.0, 0.0, 0.0, 0.0, 0.0, 0.0, 0.0, 0.0, 1.7184679586957903E9, 0.0, 2024-06-15 11:12:38.695
213.0, 79940.18702986087, 61117.00071299085, 75109.41625945762, -187500.02235174447, 114970.35503034056, -102635.23192825698, -91041.49383801149, -187500.02235174447, 0.022, 0.972, -0.18, 192.0, 0.0, 176.0, 30.0, 96.0, 250.0, 96.0, 0.0, 0.0, 0.0, 1.7184679586957989E9, 0.0, 2024-06-15 11:12:38.695
214.0, 80036.29953101868, 60941.24894633877, 73829.73418590239, -187500.02235174447, 112918.75546202129, -103669.13421978167, -92167.35120622531, -187500.02235174447, 0.022, 0.972, -0.18, 192.0, 0.0, 0.0, 0.0, 0.0, 0.0, 0.0, 0.0, 0.0, 0.0, 1.718467958695808E9, 0.0, 2024-06-15 11:12:38.695
215.0, 80059.83591793012, 61506.524563613486, 74675.70301004684, -187500.02235174447, 113292.1413531472, -103415.28545800275, -91977.04845393282, -187500.02235174447, 0.022, 0.972, -0.18, 192.0, 0.0, 0.0, 0.0, 0.0, 0.0, 0.0, 0.0, 0.0, 0.0, 1.7184679586958168E9, 0.0, 2024-06-15 11:12:38.695
216.0, 79975.48043435579, 61650.894481050316, 75904.53486496626, -187500.02235174447, 115249.57302207626, -102424.00794315434, -90895.71576067398, -187500.02235174447, 0.022, 0.972, -0.18, 192.0, 0.0, 0.0, 0.0, 0.0, 0.0, 0.0, 0.0, 0.0, 0.0, 1.718467958695826E9, 0.0, 2024-06-15 11:12:38.695
217.0, 79952.1675648889, 61221.33865610822, 75360.64986713527, -187500.02235174447, 115251.31645814377, -102506.68704589452, -90898.17445256407, -187500.02235174447, 0.022, 0.972, -0.18, 192.0, 0.0, 0.0, 0.0, 0.0, 0.0, 0.0, 0.0, 0.0, 0.0, 1.718467958695835E9, 0.0, 2024-06-15 11:12:38.695
218.0, 80039.31701652014, 60918.651332694455, 73935.703806365, -187500.02235174447, 113198.48754387946, -103550.33469800171, -92015.58286137377, -187500.02235174447, 0.022, 0.972, -0.18, 192.0, 0.0, 0.0, 0.0, 0.0, 0.0, 0.0, 0.0, 0.0, 0.0, 1.718467958695844E9, 0.0, 2024-06-15 11:12:38.695
219.0, 80083.57347054165, 61414.45772820208, 74399.77072474608, -187500.02235174447, 113000.13816358306, -103583.1023553732, -92135.38821165422, -187500.02235174447, 0.022, 0.972, -0.18, 192.0, 0.0, 0.0, 0.0, 0.0, 0.0, 0.0, 0.0, 0.0, 0.0, 1.7184679586958532E9, 0.0, 2024-06-15 11:12:38.695
220.0, 80007.55518764915, 61695.82148740548, 75801.33686081611, -187500.02235174447, 114971.47261756333, -102574.09990717172, -91056.40245156318, -187500.02235174447, 0.022, 0.972, -0.18, 192.0, 0.0, 0.0, 0.0, 0.0, 0.0, 0.0, 0.0, 0.0, 0.0, 1.718467958695862E9, 0.0, 2024-06-15 11:12:38.695
221.0, 79956.5261550577, 61326.347151559254, 75586.9389280008, -187500.02235174447, 115441.41804473616, -102401.34327427666, -90788.24857333286, -187500.02235174447, 0.022, 0.972, -0.18, 192.0, 0.0, 0.0, 0.0, 0.0, 0.0, 0.0, 0.0, 0.0, 0.0, 1.7184679586958709E9, 0.0, 2024-06-15 11:12:38.695
222.0, 80033.63967342851, 60933.71640845733, 74116.52941900842, -187500.02235174447, 113517.78221342352, -103391.14557399102, -91828.02937364929, -187500.02235174447, 0.022, 0.972, -0.18, 192.0, 0.0, 0.0, 0.0, 0.0, 0.0, 0.0, 0.0, 0.0, 0.0, 1.7184679586959004E9, 0.0, 2024-06-15 11:12:38.695
223.0, 80105.32171789667, 61334.259669096435, 74168.72074231158, -187500.02235174447, 112748.09989310503, -103733.4848920685, -92273.36553017683, -187500.02235174447, 0.016, 0.968, -0.186, 192.0, 0.0, 128.0, 30.0, 64.0, 250.0, 48.0, 0.0, 0.0, 0.0, 1.7184679586959095E9, 0.0, 2024-06-15 11:12:38.695
224.0, 80053.10804284907, 61744.19066240676, 75658.66567595789, -187500.02235174447, 114612.25773242209, -102773.58922643533, -91270.26394251156, -187500.02235174447, 0.016, 0.968, -0.186, 192.0, 0.0, 0.0, 0.0, 0.0, 0.0, 0.0, 0.0, 0.0, 0.0, 1.7184679586959183E9, 0.0, 2024-06-15 11:12:38.695
225.0, 79996.06639099913, 61456.523711266964, 75790.11628509955, -187500.02235174447, 115526.26526668851, -102368.79913434973, -90760.48770671937, -187500.02235174447, 0.016, 0.968, -0.186, 192.0, 0.0, 0.0, 0.0, 0.0, 0.0, 0.0, 0.0, 0.0, 0.0, 1.718467958695943E9, 0.0, 2024-06-15 11:12:38.695
226.0, 80038.66881593094, 60982.35380439208, 74366.55603248549, -187500.02235174447, 113879.85812185504, -103219.61828704098, -91631.80340907615, -187500.02235174447, 0.016, 0.968, -0.186, 192.0, 0.0, 0.0, 0.0, 0.0, 0.0, 0.0, 0.0, 0.0, 0.0, 1.7184679586959517E9, 0.0, 2024-06-15 11:12:38.695
227.0, 80119.24685469233, 61233.028618458346, 73985.70465871152, -187500.02235174447, 112610.83783040498, -103813.70530291859, -92336.64331872981, -187500.02235174447, 0.016, 0.968, -0.186, 192.0, 0.0, 0.0, 0.0, 0.0, 0.0, 0.0, 0.0, 0.0, 0.0, 1.718467958695961E9, 0.0, 2024-06-15 11:12:38.695
228.0, 80067.54726976721, 61728.49973779914, 75445.8547169989, -187500.02235174447, 114244.68329485456, -102941.31671682796, -91448.47440105373, -187500.02235174447, 0.016, 0.968, -0.186, 192.0, 0.0, 0.0, 0.0, 0.0, 0.0, 0.0, 0.0, 0.0, 0.0, 1.71846795869597E9, 0.0, 2024-06-15 11:12:38.695
229.0, 79986.92452751691, 61532.96667730412, 75900.0645160752, -187500.02235174447, 115543.34199945236, -102338.17724444595, -90734.53733140675, -187500.02235174447, 0.016, 0.968, -0.186, 192.0, 0.0, 0.0, 0.0, 0.0, 0.0, 0.0, 0.0, 0.0, 0.0, 1.7184679586959789E9, 0.0, 2024-06-15 11:12:38.695
230.0, 80020.56390292215, 61038.0096480858, 74628.9655123908, -187500.02235174447, 114260.97771656248, -103028.95790683723, -91417.45017974975, -187500.02235174447, 0.016, 0.968, -0.186, 192.0, 0.0, 0.0, 0.0, 0.0, 0.0, 0.0, 0.0, 0.0, 0.0, 1.718467958695988E9, 0.0, 2024-06-15 11:12:38.695
231.0, 80112.34016565564, 61130.92584978651, 73857.65151472707, -187500.02235174447, 112583.63575740288, -103833.508948506, -92332.24002507211, -187500.02235174447, 0.016, 0.968, -0.186, 192.0, 0.0, 0.0, 0.0, 0.0, 0.0, 0.0, 0.0, 0.0, 0.0, 1.7184679586959972E9, 0.0, 2024-06-15 11:12:38.695
232.0, 80076.66678150497, 61688.93715011325, 75196.05162096639, -187500.02235174447, 113866.06709552612, -103118.81191954756, -91626.68485959589, -187500.02235174447, 0.016, 0.968, -0.186, 192.0, 0.0, 0.0, 0.0, 0.0, 0.0, 0.0, 0.0, 0.0, 0.0, 1.7184679586960063E9, 0.0, 2024-06-15 11:12:38.696
233.0, 79982.76710304822, 61591.461192543655, 75963.65522905055, -187500.02235174447, 115499.84550474233, -102319.06650293666, -90714.57722360817, -187500.02235174447, 0.024, 0.964, -0.192, 192.0, 0.0, 192.0, 30.0, 32.0, 250.0, 0.0, 0.0, 0.0, 0.0, 1.7184679586960154E9, 0.0, 2024-06-15 11:12:38.696
234.0, 79990.61256535204, 61099.029910448786, 74908.3846698266, -187500.02235174447, 114668.85234938293, -102785.18978180764, -91144.17775203918, -187500.02235174447, 0.024, 0.964, -0.192, 192.0, 0.0, 0.0, 0.0, 0.0, 0.0, 0.0, 0.0, 0.0, 0.0, 1.718467958696025E9, 0.0, 2024-06-15 11:12:38.696
235.0, 80095.86692999207, 61040.69185742043, 73796.7206593419, -187500.02235174447, 112692.26523545566, -103771.25934019797, -92236.10517216983, -187500.02235174447, 0.024, 0.964, -0.192, 192.0, 0.0, 0.0, 0.0, 0.0, 0.0, 0.0, 0.0, 0.0, 0.0, 1.7184679586960337E9, 0.0, 2024-06-15 11:12:38.696
236.0, 80105.90286325252, 61632.834271530424, 74892.33611730768, -187500.02235174447, 113474.21866348013, -103331.24289885079, -91841.14984764456, -187500.02235174447, 0.024, 0.964, -0.192, 192.0, 0.0, 0.0, 0.0, 0.0, 0.0, 0.0, 0.0, 0.0, 0.0, 1.7184679586960423E9, 0.0, 2024-06-15 11:12:38.696
237.0, 80022.15087677847, 61674.363812728385, 75950.24418237737, -187500.02235174447, 115328.83230791478, -102433.70860024793, -90841.95981525896, -187500.02235174447, 0.024, 0.964, -0.192, 192.0, 0.0, 0.0, 0.0, 0.0, 0.0, 0.0, 0.0, 0.0, 0.0, 1.7184679586960511E9, 0.0, 2024-06-15 11:12:38.696
238.0, 80006.34819344858, 61200.41742329806, 75173.18578638861, -187500.02235174447, 114960.87789069151, -102693.8382022188, -91037.40346877617, -187500.02235174447, 0.024, 0.964, -0.192, 192.0, 0.0, 0.0, 0.0, 0.0, 0.0, 0.0, 0.0, 0.0, 0.0, 1.71846795869606E9, 0.0, 2024-06-15 11:12:38.696
239.0, 80097.49860733731, 60985.08071721563, 73833.19870629295, -187500.02235174447, 112852.81781587814, -103755.70252605708, -92188.63006694676, -187500.02235174447, 0.024, 0.964, -0.192, 192.0, 0.0, 0.0, 0.0, 0.0, 0.0, 0.0, 0.0, 0.0, 0.0, 1.7184679586960692E9, 0.0, 2024-06-15 11:12:38.696
240.0, 80112.36251740009, 61539.94042157417, 74618.75076517473, -187500.02235174447, 113107.29242650181, -103537.12481702863, -92038.29223374036, -187500.02235174447, 0.024, 0.964, -0.192, 192.0, 0.0, 0.0, 0.0, 0.0, 0.0, 0.0, 0.0, 0.0, 0.0, 1.7184679586960783E9, 0.0, 2024-06-15 11:12:38.696
241.0, 80022.30733898966, 61713.792289947545, 75897.02467882929, -187500.02235174447, 115095.413040568, -102514.97954308744, -90928.32695583427, -187500.02235174447, 0.024, 0.964, -0.192, 192.0, 0.0, 0.0, 0.0, 0.0, 0.0, 0.0, 0.0, 0.0, 0.0, 1.7184679591749403E9, 0.0, 2024-06-15 11:12:39.174
242.0, 79992.15483571946, 61298.27336052339, 75425.1570016333, -187500.02235174447, 115205.00364363237, -102532.63742120712, -90861.53994340182, -187500.02235174447, 0.024, 0.964, -0.192, 192.0, 0.0, 0.0, 0.0, 0.0, 0.0, 0.0, 0.0, 0.0, 0.0, 1.718467959175072E9, 0.0, 2024-06-15 11:12:39.175
243.0, 80077.91847919447, 60960.650260525974, 73951.55119318381, -187500.02235174447, 113126.42551975555, -103593.13828863362, -91990.213631417, -187500.02235174447, 0.024, 0.964, -0.192, 192.0, 0.0, 0.0, 0.0, 0.0, 0.0, 0.0, 0.0, 0.0, 0.0, 1.71846795917509E9, 0.0, 2024-06-15 11:12:39.175
244.0, 80128.411069919, 61444.07378960536, 74333.18487801372, -187500.02235174447, 112789.20475115834, -103695.24105730547, -92184.11501456679, -187500.02235174447, 0.028, 0.962, -0.184, 192.0, 0.0, 224.0, 30.0, 16.0, 250.0, 64.0, 0.0, 0.0, 0.0, 1.718467959175106E9, 0.0, 2024-06-15 11:12:39.175
245.0, 80047.38599626851, 61755.0759619565, 75772.83838663559, -187500.02235174447, 114777.79475185809, -102669.92183565162, -91093.88632701473, -187500.02235174447, 0.028, 0.962, -0.184, 192.0, 0.0, 0.0, 0.0, 0.0, 0.0, 0.0, 0.0, 0.0, 0.0, 1.7184679591751187E9, 0.0, 2024-06-15 11:12:39.175
246.0, 80001.34140269058, 61407.931018821124, 75635.79984138011, -187500.02235174447, 115351.85460470374, -102461.04478371677, -90784.98521864238, -187500.02235174447, 0.028, 0.962, -0.184, 192.0, 0.0, 0.0, 0.0, 0.0, 0.0, 0.0, 0.0, 0.0, 0.0, 1.7184679591751466E9, 0.0, 2024-06-15 11:12:39.175
247.0, 80063.23338308732, 60973.63662405451, 74148.42535834615, -187500.02235174447, 113462.84162555238, -103423.64501042903, -91788.84676561914, -187500.02235174447, 0.028, 0.962, -0.184, 192.0, 0.0, 0.0, 0.0, 0.0, 0.0, 0.0, 0.0, 0.0, 0.0, 1.7184679591751623E9, 0.0, 2024-06-15 11:12:39.175
248.0, 80138.40229969053, 61332.650343495654, 74088.05329657237, -187500.02235174447, 112563.94387053775, -103808.4526429716, -92278.61819012383, -187500.02235174447, 0.028, 0.962, -0.184, 192.0, 0.0, 0.0, 0.0, 0.0, 0.0, 0.0, 0.0, 0.0, 0.0, 1.7184679591751716E9, 0.0, 2024-06-15 11:12:39.175
249.0, 80080.91361295148, 61766.229482439696, 75590.8951867694, -187500.02235174447, 114410.6002939463, -102857.25180593155, -91289.5982014654, -187500.02235174447, 0.028, 0.962, -0.184, 192.0, 0.0, 0.0, 0.0, 0.0, 0.0, 0.0, 0.0, 0.0, 0.0, 1.7184679591751812E9, 0.0, 2024-06-15 11:12:39.175
250.0, 80004.29183295868, 61492.822944262385, 75801.73919221631, -187500.02235174447, 115435.31601849986, -102420.25285008585, -90743.5227326778, -187500.02235174447, 0.028, 0.962, -0.184, 192.0, 0.0, 0.0, 0.0, 0.0, 0.0, 0.0, 0.0, 0.0, 0.0, 1.718467959175191E9, 0.0, 2024-06-15 11:12:39.175
251.0, 80031.80683038317, 61001.911580790475, 74398.74254450113, -187500.02235174447, 113866.7823513487, -103240.29365066215, -91576.68400724937, -187500.02235174447, 0.028, 0.962, -0.184, 192.0, 0.0, 0.0, 0.0, 0.0, 0.0, 0.0, 0.0, 0.0, 0.0, 1.7184679591752007E9, 0.0, 2024-06-15 11:12:39.175
252.0, 80129.17102923048, 61221.18219389704, 73908.12175370715, -187500.02235174447, 112464.3444972449, -103913.61760063382, -92361.81138298647, -187500.02235174447, 0.028, 0.962, -0.184, 192.0, 0.0, 0.0, 0.0, 0.0, 0.0, 0.0, 0.0, 0.0, 0.0, 1.71846795917521E9, 0.0, 2024-06-15 11:12:39.175
253.0, 80082.902918208, 61744.72710427369, 75375.64788766479, -187500.02235174447, 114051.3183535717, -103057.54578799556, -91495.68128534334, -187500.02235174447, 0.028, 0.962, -0.184, 192.0, 0.0, 0.0, 0.0, 0.0, 0.0, 0.0, 0.0, 0.0, 0.0, 1.7184679591752195E9, 0.0, 2024-06-15 11:12:39.175
254.0, 80000.31322244563, 61563.141532318776, 75909.1169725796, -187500.02235174447, 115451.02929485195, -102388.58042819267, -90713.88431953006, -187500.02235174447, 0.03, 0.964, -0.19, 192.0, 0.0, 240.0, 30.0, 32.0, 250.0, 16.0, 0.0, 0.0, 0.0, 1.71846795917523E9, 0.0, 2024-06-15 11:12:39.175
255.0, 80027.64940591448, 61059.15439834051, 74670.78562626668, -187500.02235174447, 114248.23722222296, -103047.06281984602, -91356.7651935536, -187500.02235174447, 0.03, 0.964, -0.19, 192.0, 0.0, 0.0, 0.0, 0.0, 0.0, 0.0, 0.0, 0.0, 0.0, 1.718467959175256E9, 0.0, 2024-06-15 11:12:39.175
0.0, 80131.74147984285, 61122.2757246823, 73805.3260809572, -187500.02235174447, 112447.13365401431, -103941.02083933602, -92361.6996242642, -187500.02235174447, 0.03, 0.964, -0.19, 192.0, 0.0, 0.0, 0.0, 0.0, 0.0, 0.0, 0.0, 0.0, 0.0, 1.7184679591752656E9, 0.0, 2024-06-15 11:12:39.175
1.0, 80101.61132831709, 61697.02848160607, 75115.67474790511, -187500.02235174447, 113642.21437480622, -103245.41220014241, -91685.24643006879, -187500.02235174447, 0.03, 0.964, -0.19, 192.0, 0.0, 0.0, 0.0, 0.0, 0.0, 0.0, 0.0, 0.0, 0.0, 1.7184679591752756E9, 0.0, 2024-06-15 11:12:39.175
2.0, 80011.04205978419, 61640.90325127879, 75953.90986846804, -187500.02235174447, 115352.45810180403, -102405.3218847897, -90732.59272963915, -187500.02235174447, 0.03, 0.964, -0.19, 192.0, 0.0, 0.0, 0.0, 0.0, 0.0, 0.0, 0.0, 0.0, 0.0, 1.7184679591753237E9, 0.0, 2024-06-15 11:12:39.175
3.0, 80010.59502489508, 61147.600251150165, 74950.29419068029, -187500.02235174447, 114614.89523826781, -102834.69889577615, -91117.62387962626, -187500.02235174447, 0.03, 0.964, -0.19, 192.0, 0.0, 0.0, 0.0, 0.0, 0.0, 0.0, 0.0, 0.0, 0.0, 1.7184679591753411E9, 0.0, 2024-06-15 11:12:39.175
4.0, 80110.21674993238, 61044.29048827774, 73770.09973169562, -187500.02235174447, 112580.66297539033, -103838.31457356388, -92222.44825630765, -187500.02235174447, 0.03, 0.964, -0.19, 192.0, 0.0, 0.0, 0.0, 0.0, 0.0, 0.0, 0.0, 0.0, 0.0, 1.718467959175352E9, 0.0, 2024-06-15 11:12:39.175
5.0, 80128.92516004147, 61642.66903909076, 74810.908712257, -187500.02235174447, 113250.00831484895, -103437.57014722469, -91869.44715612498, -187500.02235174447, 0.03, 0.964, -0.19, 192.0, 0.0, 0.0, 0.0, 0.0, 0.0, 0.0, 0.0, 0.0, 0.0, 1.718467959175362E9, 0.0, 2024-06-15 11:12:39.175
6.0, 80043.18386831092, 61725.50460404213, 75940.16354562802, -187500.02235174447, 115170.26903274882, -102498.48395567942, -90829.46519010844, -187500.02235174447, 0.03, 0.964, -0.19, 192.0, 0.0, 0.0, 0.0, 0.0, 0.0, 0.0, 0.0, 0.0, 0.0, 1.7184679591753714E9, 0.0, 2024-06-15 11:12:39.175
7.0, 80020.20627501086, 61261.03535426085, 75235.63656039674, -187500.02235174447, 114924.64571292946, -102688.63024576071, -90951.05867994532, -187500.02235174447, 0.03, 0.964, -0.19, 192.0, 0.0, 0.0, 0.0, 0.0, 0.0, 0.0, 0.0, 0.0, 0.0, 1.7184679591753829E9, 0.0, 2024-06-15 11:12:39.175
8.0, 80118.12926746956, 61010.60640938359, 73841.29003778577, -187500.02235174447, 112794.59152157206, -103751.25452891047, -92097.59141178029, -187500.02235174447, 0.026000000000000002, 0.966, -0.184, 192.0, 0.0, 208.0, 30.0, 48.0, 250.0, 64.0, 0.0, 0.0, 0.0, 1.7184679591753943E9, 0.0, 2024-06-15 11:12:39.175
9.0, 80157.8706691111, 61566.67310794272, 74532.92006646635, -187500.02235174447, 112898.77300247825, -103626.59885008322, -92047.23293152249, -187500.02235174447, 0.026000000000000002, 0.966, -0.184, 192.0, 0.0, 0.0, 0.0, 0.0, 0.0, 0.0, 0.0, 0.0, 0.0, 1.7184679591754045E9, 0.0, 2024-06-15 11:12:39.175
10.0, 80073.8504617036, 61786.994253038676, 75881.66903038848, -187500.02235174447, 114920.73415764979, -102617.48464315948, -90954.5679038248, -187500.02235174447, 0.026000000000000002, 0.966, -0.184, 192.0, 0.0, 0.0, 0.0, 0.0, 0.0, 0.0, 0.0, 0.0, 0.0, 1.7184679591754148E9, 0.0, 2024-06-15 11:12:39.175
11.0, 80021.77089712274, 61373.71049806005, 75495.9226245788, -187500.02235174447, 115170.51490193784, -102552.23990109444, -90799.35739032715, -187500.02235174447, 0.026000000000000002, 0.966, -0.184, 192.0, 0.0, 0.0, 0.0, 0.0, 0.0, 0.0, 0.0, 0.0, 0.0, 1.7184679591754253E9, 0.0, 2024-06-15 11:12:39.175
12.0, 80101.16429342798, 61006.538391892725, 73986.37521104518, -187500.02235174447, 113107.51594394636, -103592.04305315531, -91902.32657221874, -187500.02235174447, 0.026000000000000002, 0.966, -0.184, 192.0, 0.0, 0.0, 0.0, 0.0, 0.0, 0.0, 0.0, 0.0, 0.0, 1.7184679591754353E9, 0.0, 2024-06-15 11:12:39.175
13.0, 80158.85414586714, 61466.20201661611, 74252.36097006332, -187500.02235174447, 112615.15171708485, -103780.91529380267, -92185.70198842311, -187500.02235174447, 0.026000000000000002, 0.966, -0.184, 192.0, 0.0, 0.0, 0.0, 0.0, 0.0, 0.0, 0.0, 0.0, 0.0, 1.7184679591754446E9, 0.0, 2024-06-15 11:12:39.175
14.0, 80079.66191526198, 61819.87366913244, 75743.44584267687, -187500.02235174447, 114613.84470627841, -102752.66799362517, -91097.93199276114, -187500.02235174447, 0.026000000000000002, 0.966, -0.184, 192.0, 0.0, 0.0, 0.0, 0.0, 0.0, 0.0, 0.0, 0.0, 0.0, 1.7184679591754549E9, 0.0, 2024-06-15 11:12:39.175
15.0, 80018.70870813236, 61483.68108078016, 75689.28756586165, -187500.02235174447, 115319.51163047692, -102454.7862952693, -90695.57824082115, -187500.02235174447, 0.026000000000000002, 0.966, -0.184, 192.0, 0.0, 0.0, 0.0, 0.0, 0.0, 0.0, 0.0, 0.0, 0.0, 1.7184679591754646E9, 0.0, 2024-06-15 11:12:39.175
16.0, 80083.1040839081, 61040.13306380905, 74186.26686170898, -187500.02235174447, 113460.11471272883, -103417.8559086151, -91692.57780225013, -187500.02235174447, 0.026000000000000002, 0.966, -0.184, 192.0, 0.0, 0.0, 0.0, 0.0, 0.0, 0.0, 0.0, 0.0, 0.0, 1.7184679591754751E9, 0.0, 2024-06-15 11:12:39.175
17.0, 80150.69575914094, 61362.19934966557, 74019.09816492775, -187500.02235174447, 112418.14344145579, -103880.55937058442, -92260.06624222592, -187500.02235174447, 0.026000000000000002, 0.966, -0.184, 192.0, 0.0, 0.0, 0.0, 0.0, 0.0, 0.0, 0.0, 0.0, 0.0, 1.7184679591754863E9, 0.0, 2024-06-15 11:12:39.175
18.0, 80091.06130493419, 61840.77255019815, 75544.89529668038, -187500.02235174447, 114252.48405366947, -102922.98828637462, -91268.22993376612, -187500.02235174447, 0.026000000000000002, 0.972, -0.186, 192.0, 0.0, 208.0, 30.0, 96.0, 250.0, 48.0, 0.0, 0.0, 0.0, 1.7184679591754975E9, 0.0, 2024-06-15 11:12:39.175
19.0, 80024.386051224, 61646.893518792815, 75841.32413164666, -187500.02235174447, 115400.20142796058, -102408.33937029117, -90641.4423157504, -187500.02235174447, 0.026000000000000002, 0.972, -0.186, 192.0, 0.0, 0.0, 0.0, 0.0, 0.0, 0.0, 0.0, 0.0, 0.0, 1.718467959175511E9, 0.0, 2024-06-15 11:12:39.175
20.0, 80061.24407783081, 61202.38437681012, 74446.75409159114, -187500.02235174447, 113879.72401138832, -103222.00992369771, -91461.01372969315, -187500.02235174447, 0.026000000000000002, 0.972, -0.186, 192.0, 0.0, 0.0, 0.0, 0.0, 0.0, 0.0, 0.0, 0.0, 0.0, 1.7184679591755207E9, 0.0, 2024-06-15 11:12:39.175
21.0, 80148.1700120175, 61414.5471351799, 73852.95764839144, -187500.02235174447, 112342.03575158546, -103968.55818850496, -92317.82314989844, -187500.02235174447, 0.026000000000000002, 0.972, -0.186, 192.0, 0.0, 0.0, 0.0, 0.0, 0.0, 0.0, 0.0, 0.0, 0.0, 1.71846795917553E9, 0.0, 2024-06-15 11:12:39.175
22.0, 80102.12541843957, 62000.632226542504, 75316.23695090257, -187500.02235174447, 113875.18660726388, -103133.11703599895, -91474.26831415514, -187500.02235174447, 0.026000000000000002, 0.972, -0.186, 192.0, 0.0, 0.0, 0.0, 0.0, 0.0, 0.0, 0.0, 0.0, 0.0, 1.7184679591755393E9, 0.0, 2024-06-15 11:12:39.175
23.0, 80021.72619363382, 61885.76661178668, 75932.8768769356, -187500.02235174447, 115379.61547131723, -102412.25092557084, -90637.5978157041, -187500.02235174447, 0.026000000000000002, 0.972, -0.186, 192.0, 0.0, 0.0, 0.0, 0.0, 0.0, 0.0, 0.0, 0.0, 0.0, 1.7184679591755486E9, 0.0, 2024-06-15 11:12:39.175
24.0, 80042.40155725498, 61395.68226285962, 74728.65429266146, -187500.02235174447, 114281.13899006117, -103006.89673505984, -91206.51676732503, -187500.02235174447, 0.026000000000000002, 0.972, -0.186, 192.0, 0.0, 0.0, 0.0, 0.0, 0.0, 0.0, 0.0, 0.0, 0.0, 1.7184679591755583E9, 0.0, 2024-06-15 11:12:39.175
25.0, 80148.28177073978, 61415.73177763603, 73747.88209770704, -187500.02235174447, 112364.14162685176, -103961.29387155699, -92269.27516094151, -187500.02235174447, 0.026000000000000002, 0.972, -0.186, 192.0, 0.0, 0.0, 0.0, 0.0, 0.0, 0.0, 0.0, 0.0, 0.0, 1.7184679591755686E9, 0.0, 2024-06-15 11:12:39.175
26.0, 80139.69870086893, 62013.86445926005, 75024.88196192765, -187500.02235174447, 113435.99718046155, -103360.99307072081, -91693.20365109488, -187500.02235174447, 0.026000000000000002, 0.972, -0.186, 192.0, 0.0, 0.0, 0.0, 0.0, 0.0, 0.0, 0.0, 0.0, 0.0, 1.718467959175578E9, 0.0, 2024-06-15 11:12:39.175
27.0, 80055.1420515945, 61995.87130497352, 75964.9292784845, -187500.02235174447, 115231.51281255638, -102483.441231661, -90702.23906066884, -187500.02235174447, 0.026000000000000002, 0.972, -0.186, 192.0, 0.0, 0.0, 0.0, 0.0, 0.0, 0.0, 0.0, 0.0, 0.0, 1.718467959175588E9, 0.0, 2024-06-15 11:12:39.175
28.0, 80061.37818829755, 61516.73931082956, 75018.55641824681, -187500.02235174447, 114595.42686884724, -102868.29356769247, -91033.89424489668, -187500.02235174447, 0.026000000000000002, 0.972, -0.186, 192.0, 0.0, 0.0, 0.0, 0.0, 0.0, 0.0, 0.0, 0.0, 0.0, 1.718467959175598E9, 0.0, 2024-06-15 11:12:39.175
