%OpenBCI Raw EXG Data
%Number of channels = 8
%Sample Rate = 250 Hz
%Board = OpenBCI_GUI$BoardCytonSerial
Sample Index, EXG Channel 0, EXG Channel 1, EXG Channel 2, EXG Channel 3, EXG Channel 4, EXG Channel 5, EXG Channel 6, EXG Channel 7, Accel Channel 0, Accel Channel 1, Accel Channel 2, Other, Other, Other, Other, Other, Other, Other, Analog Channel 0, Analog Channel 1, Analog Channel 2, Timestamp, Other, Timestamp (Formatted)
196.0, 75092.89832030515, 63501.931846372114, 74729.12367929504, -187500.02235174447, 109208.18706848468, -187500.02235174447, -164741.94553398437, -187500.02235174447, 0.0, 0.0, 0.0, 192.0, 0.0, 0.0, 0.0, 0.0, 0.0, 0.0, 0.0, 0.0, 0.0, 1.7184676813202417E9, 0.0, 2024-06-15 11:08:01.320
197.0, 75021.32803455926, 62262.66172679207, 73913.73204156542, -187500.02235174447, 109159.14734114974, -187500.02235174447, -164938.95380961345, -187500.02235174447, 0.0, 0.0, 0.0, 192.0, 0.0, 0.0, 0.0, 0.0, 0.0, 0.0, 0.0, 0.0, 0.0, 1.7184676813202631E9, 0.0, 2024-06-15 11:08:01.320
198.0, 74995.53412145784, 61256.095618736224, 73341.03564513155, -187500.02235174447, 109205.41545217222, -187500.02235174447, -165174.7870653614, -187500.02235174447, 0.0, 0.0, 0.0, 192.0, 0.0, 0.0, 0.0, 0.0, 0.0, 0.0, 0.0, 0.0, 0.0, 1.7184676813202772E9, 0.0, 2024-06-15 11:08:01.320
51.0, 75785.62358446403, 61710.35012130143, 73600.98643314677, -187500.02235174447, 109403.76483246862, -187500.02235174447, -164964.3900948036, -187500.02235174447, 0.0, 0.0, 0.0, 192.0, 0.0, 0.0, 0.0, 0.0, 0.0, 0.0, 0.0, 0.0, 0.0, 1.71846768132029E9, 0.0, 2024-06-15 11:08:01.320
200.0, 75084.06938124531, 63532.46432929806, 74734.75631889777, -187500.02235174447, 109159.75083825002, -187500.02235174447, -164780.3905344475, -187500.02235174447, 0.0, 0.0, 0.0, 192.0, 0.0, 0.0, 0.0, 0.0, 0.0, 0.0, 0.0, 0.0, 0.0, 1.7184676813203027E9, 0.0, 2024-06-15 11:08:01.320
49.0, 75825.3426343611, 63144.214528109376, 74335.50945943707, -187500.02235174447, 108981.40626924114, -187500.02235174447, -164797.22139802235, -187500.02235174447, 0.0, 0.0, 0.0, 192.0, 0.0, 0.0, 0.0, 0.0, 0.0, 0.0, 0.0, 0.0, 0.0, 1.718467681320315E9, 0.0, 2024-06-15 11:08:01.320
25.0, 75545.18586935829, 61606.95095145118, 73500.80591449808, -187500.02235174447, 109202.33091143738, -187500.02235174447, -165012.49104887142, -187500.02235174447, -0.01, 0.99, 0.048, 192.0, 255.0, 176.0, 30.0, 240.0, 1.0, 128.0, 0.0, 0.0, 0.0, 1.7184676813203268E9, 0.0, 2024-06-15 11:08:01.320
203.0, 75080.0237154989, 62198.333406249694, 73891.4920558324, -187500.02235174447, 109144.23872759804, -187500.02235174447, -165083.54724449484, -187500.02235174447, -0.01, 0.99, 0.048, 192.0, 0.0, 0.0, 0.0, 0.0, 0.0, 0.0, 0.0, 0.0, 0.0, 1.7184676813203392E9, 0.0, 2024-06-15 11:08:01.320
47.0, 75771.02789533472, 61948.84323463956, 73711.04642284471, -187500.02235174447, 109344.15273000632, -187500.02235174447, -164946.91103063955, -187500.02235174447, -0.01, 0.99, 0.048, 192.0, 0.0, 0.0, 0.0, 0.0, 0.0, 0.0, 0.0, 0.0, 0.0, 1.7184676813203511E9, 0.0, 2024-06-15 11:08:01.320
5.0, 75423.7041382437, 61570.3834975223, 73494.63683302842, -187500.02235174447, 109198.39700441326, -187500.02235174447, -165106.18956162807, -187500.02235174447, -0.016, 0.996, 0.048, 192.0, 255.0, 128.0, 31.0, 32.0, 1.0, 128.0, 0.0, 0.0, 0.0, 1.7184676813203628E9, 0.0, 2024-06-15 11:08:01.320
45.0, 75734.39338617247, 62902.41335659187, 74224.84597263885, -187500.02235174447, 109065.76175281547, -187500.02235174447, -164771.2933744542, -187500.02235174447, -0.016, 0.996, 0.048, 192.0, 0.0, 0.0, 0.0, 0.0, 0.0, 0.0, 0.0, 0.0, 0.0, 1.7184676813203747E9, 0.0, 2024-06-15 11:08:01.320
43.0, 75765.61877317652, 62250.144749897096, 73864.3793898081, -187500.02235174447, 109295.82825849394, -187500.02235174447, -164924.71574839542, -187500.02235174447, -0.016, 0.996, 0.048, 192.0, 0.0, 0.0, 0.0, 0.0, 0.0, 0.0, 0.0, 0.0, 0.0, 1.718467681320387E9, 0.0, 2024-06-15 11:08:01.320
21.0, 75492.65926988832, 61431.78033015494, 73426.91104732885, -187500.02235174447, 109293.23545613712, -187500.02235174447, -164999.01294696485, -187500.02235174447, -0.016, 0.996, 0.048, 192.0, 0.0, 0.0, 0.0, 0.0, 0.0, 0.0, 0.0, 0.0, 0.0, 1.7184676813203983E9, 0.0, 2024-06-15 11:08:01.320
69.0, 76134.53431541137, 63552.133864418734, 74178.80137906091, -187500.02235174447, 108495.50169652721, -187500.02235174447, -164918.6807773925, -187500.02235174447, -0.016, 0.996, 0.048, 192.0, 0.0, 0.0, 0.0, 0.0, 0.0, 0.0, 0.0, 0.0, 0.0, 1.7184676813204353E9, 0.0, 2024-06-15 11:08:01.320
65.0, 76103.53244585186, 63607.566190667894, 74186.69154485363, -187500.02235174447, 108267.558606572, -187500.02235174447, -164988.32881311522, -187500.02235174447, -0.016, 0.996, 0.048, 192.0, 0.0, 0.0, 0.0, 0.0, 0.0, 0.0, 0.0, 0.0, 0.0, 1.7184676813204477E9, 0.0, 2024-06-15 11:08:01.320
219.0, 75060.9129739896, 61324.15668060264, 73361.80041573053, -187500.02235174447, 109188.29401591945, -187500.02235174447, -165156.41393141914, -187500.02235174447, -0.016, 0.996, 0.048, 192.0, 0.0, 0.0, 0.0, 0.0, 0.0, 0.0, 0.0, 0.0, 0.0, 1.71846768132046E9, 0.0, 2024-06-15 11:08:01.320
63.0, 75763.09302605307, 61393.42473666963, 73830.51649695831, -187500.02235174447, 110160.72901019205, -187500.02235174447, -164700.2818823197, -187500.02235174447, -0.016, 0.996, 0.048, 192.0, 0.0, 0.0, 0.0, 0.0, 0.0, 0.0, 0.0, 0.0, 0.0, 1.7184676813204727E9, 0.0, 2024-06-15 11:08:01.320
37.0, 75645.99223685173, 62360.316498317305, 73907.18298044002, -187500.02235174447, 109125.0609308554, -187500.02235174447, -164831.17369784997, -187500.02235174447, -0.016, 0.996, 0.048, 192.0, 0.0, 0.0, 0.0, 0.0, 0.0, 0.0, 0.0, 0.0, 0.0, 1.7184676813204892E9, 0.0, 2024-06-15 11:08:01.320
10.0, 75532.04304361857, 62887.16946687335, 74264.07328415792, -187500.02235174447, 109134.26984957098, -187500.02235174447, -164871.7644657808, -187500.02235174447, -0.016, 0.996, 0.048, 192.0, 0.0, 0.0, 0.0, 0.0, 0.0, 0.0, 0.0, 0.0, 0.0, 1.7184676813205068E9, 0.0, 2024-06-15 11:08:01.320
61.0, 75997.24990096688, 63577.48074263105, 74286.26856640202, -187500.02235174447, 108348.24840405564, -187500.02235174447, -164916.4232512025, -187500.02235174447, -0.016, 0.996, 0.048, 192.0, 0.0, 0.0, 0.0, 0.0, 0.0, 0.0, 0.0, 0.0, 0.0, 1.7184676813205252E9, 0.0, 2024-06-15 11:08:01.320
15.0, 75572.07501793803, 63538.14167238971, 74656.27934411519, -187500.02235174447, 109127.18434657865, -187500.02235174447, -164725.00291168725, -187500.02235174447, -0.018000000000000002, 0.996, 0.05, 192.0, 255.0, 112.0, 31.0, 32.0, 1.0, 144.0, 0.0, 0.0, 0.0, 1.7184676813205433E9, 0.0, 2024-06-15 11:08:01.320
59.0, 75783.6342792075, 61431.62386794375, 73588.44710450734, -187500.02235174447, 109783.94565390893, -187500.02235174447, -164843.3106950892, -187500.02235174447, -0.018000000000000002, 0.996, 0.05, 192.0, 0.0, 0.0, 0.0, 0.0, 0.0, 0.0, 0.0, 0.0, 0.0, 1.718467681320561E9, 0.0, 2024-06-15 11:08:01.320
74.0, 76037.46068924197, 63230.201689028945, 74270.3317726054, -187500.02235174447, 108940.68139084356, -187500.02235174447, -164775.51785415626, -187500.02235174447, -0.018000000000000002, 0.996, 0.05, 192.0, 0.0, 0.0, 0.0, 0.0, 0.0, 0.0, 0.0, 0.0, 0.0, 1.7184676813205855E9, 0.0, 2024-06-15 11:08:01.320
57.0, 75917.20830407242, 63487.604378176264, 74481.24283328568, -187500.02235174447, 108864.68545969552, -187500.02235174447, -164771.00280177628, -187500.02235174447, -0.018000000000000002, 0.996, 0.05, 192.0, 0.0, 0.0, 0.0, 0.0, 0.0, 0.0, 0.0, 0.0, 0.0, 1.7184676813205988E9, 0.0, 2024-06-15 11:08:01.320
28.0, 75641.16426004938, 63256.912023653036, 74424.93878900276, -187500.02235174447, 109028.4343395751, -187500.02235174447, -164753.8813655235, -187500.02235174447, -0.018000000000000002, 0.996, 0.05, 192.0, 0.0, 0.0, 0.0, 0.0, 0.0, 0.0, 0.0, 0.0, 0.0, 1.7184676813206117E9, 0.0, 2024-06-15 11:08:01.320
80.0, 75959.05076969275, 61518.10276724133, 73485.67378350184, -187500.02235174447, 109481.48184793972, -187500.02235174447, -164954.3318097987, -187500.02235174447, -0.018000000000000002, 0.996, 0.05, 192.0, 0.0, 0.0, 0.0, 0.0, 0.0, 0.0, 0.0, 0.0, 0.0, 1.718467681320624E9, 0.0, 2024-06-15 11:08:01.320
77.0, 76083.28176537536, 63228.81588087272, 74324.55710465397, -187500.02235174447, 109081.27386346745, -187500.02235174447, -164786.42550545043, -187500.02235174447, -0.018000000000000002, 0.996, 0.05, 192.0, 0.0, 0.0, 0.0, 0.0, 0.0, 0.0, 0.0, 0.0, 0.0, 1.7184676813206365E9, 0.0, 2024-06-15 11:08:01.320
70.0, 76074.18460538205, 63052.32650665361, 74051.37408392121, -187500.02235174447, 108229.96297239816, -187500.02235174447, -165074.9194711351, -187500.02235174447, -0.018000000000000002, 0.996, 0.05, 192.0, 0.0, 0.0, 0.0, 0.0, 0.0, 0.0, 0.0, 0.0, 0.0, 1.7184676813206484E9, 0.0, 2024-06-15 11:08:01.320
75.0, 75926.88660942156, 61774.0302412546, 73587.73184868478, -187500.02235174447, 109288.56394154596, -187500.02235174447, -164922.8829053501, -187500.02235174447, -0.018000000000000002, 0.996, 0.05, 192.0, 0.0, 0.0, 0.0, 0.0, 0.0, 0.0, 0.0, 0.0, 0.0, 1.7184676813206613E9, 0.0, 2024-06-15 11:08:01.320
0.0, 0.0, 0.0, 0.0, 0.0, 0.0, 0.0, 0.0, 0.0, -0.028, 0.98, 0.128, 192.0, 255.0, 32.0, 30.0, 160.0, 4.0, 0.0, 0.0, 0.0, 0.0, 1.7184676814069784E9, 0.0, 2024-06-15 11:08:01.406
1.0, 77285.67150660414, 61903.737414328745, 72921.80632612781, -187500.02235174447, 108479.14021958593, -187500.02235174447, -163932.6335707466, -187500.02235174447, -0.028, 0.98, 0.128, 192.0, 0.0, 0.0, 0.0, 0.0, 0.0, 0.0, 0.0, 0.0, 0.0, 1.7184676818911684E9, 0.0, 2024-06-15 11:08:01.891
2.0, 77486.25606134607, 63362.72518190446, 73318.43803148724, -187500.02235174447, 106573.76576349328, -187500.02235174447, -164352.95812522867, -187500.02235174447, -0.028, 0.98, 0.128, 192.0, 0.0, 0.0, 0.0, 0.0, 0.0, 0.0, 0.0, 0.0, 0.0, 1.7184676818912525E9, 0.0, 2024-06-15 11:08:01.891
3.0, 77336.2535043065, 62501.534819785935, 73175.7221431401, -187500.02235174447, 106842.67960103508, -187500.02235174447, -164400.12030602936, -187500.02235174447, -0.028, 0.98, 0.128, 192.0, 0.0, 0.0, 0.0, 0.0, 0.0, 0.0, 0.0, 0.0, 0.0, 1.7184676818912644E9, 0.0, 2024-06-15 11:08:01.891
4.0, 77097.8497979462, 60886.978910801285, 72822.83280167972, -187500.02235174447, 108810.39307241359, -187500.02235174447, -164007.73543211646, -187500.02235174447, -0.028, 0.98, 0.128, 192.0, 0.0, 0.0, 0.0, 0.0, 0.0, 0.0, 0.0, 0.0, 0.0, 1.7184676818912754E9, 0.0, 2024-06-15 11:08:01.891
5.0, 77230.01566291043, 61580.218265082636, 72882.17668320856, -187500.02235174447, 108851.60968918916, -187500.02235174447, -163887.81832311372, -187500.02235174447, -0.028, 0.98, 0.128, 192.0, 0.0, 0.0, 0.0, 0.0, 0.0, 0.0, 0.0, 0.0, 0.0, 1.7184676818913016E9, 0.0, 2024-06-15 11:08:01.891
6.0, 77470.20750882715, 63275.30750933976, 73292.17473175225, -187500.02235174447, 106900.21299126303, -187500.02235174447, -164288.6298046863, -187500.02235174447, -0.028, 0.98, 0.128, 192.0, 0.0, 0.0, 0.0, 0.0, 0.0, 0.0, 0.0, 0.0, 0.0, 1.718467681891312E9, 0.0, 2024-06-15 11:08:01.891
7.0, 77374.765560003, 62796.91312276282, 73177.26441350751, -187500.02235174447, 106581.67828103046, -187500.02235174447, -164451.3281525765, -187500.02235174447, -0.028, 0.98, 0.128, 192.0, 0.0, 0.0, 0.0, 0.0, 0.0, 0.0, 0.0, 0.0, 0.0, 1.7184676818913417E9, 0.0, 2024-06-15 11:08:01.891
8.0, 77225.00887215244, 61144.33689645969, 72423.34007303, -187500.02235174447, 107096.79658374746, -187500.02235174447, -164567.82544467752, -187500.02235174447, -0.028, 0.978, 0.164, 192.0, 255.0, 32.0, 30.0, 144.0, 5.0, 32.0, 0.0, 0.0, 0.0, 1.7184676818913512E9, 0.0, 2024-06-15 11:08:01.891
9.0, 77257.21773591253, 61357.03609669639, 72623.1870202049, -187500.02235174447, 107412.49262243422, -187500.02235174447, -164494.80229554206, -187500.02235174447, -0.028, 0.978, 0.164, 192.0, 0.0, 0.0, 0.0, 0.0, 0.0, 0.0, 0.0, 0.0, 0.0, 1.7184676818913605E9, 0.0, 2024-06-15 11:08:01.891
10.0, 77349.39633004622, 63053.80172178766, 73620.90183745645, -187500.02235174447, 107262.89239679485, -187500.02235174447, -164261.09245551736, -187500.02235174447, -0.028, 0.978, 0.164, 192.0, 0.0, 0.0, 0.0, 0.0, 0.0, 0.0, 0.0, 0.0, 0.0, 1.71846768189137E9, 0.0, 2024-06-15 11:08:01.891
11.0, 77298.9931462995, 62929.12369121596, 73544.50357490822, -187500.02235174447, 107300.21981003521, -187500.02235174447, -164217.19362940712, -187500.02235174447, -0.028, 0.978, 0.164, 192.0, 0.0, 0.0, 0.0, 0.0, 0.0, 0.0, 0.0, 0.0, 0.0, 1.7184676818913796E9, 0.0, 2024-06-15 11:08:01.891
12.0, 77217.14105810417, 61321.49682301246, 72564.60309798755, -187500.02235174447, 107460.14654161294, -187500.02235174447, -164450.568193265, -187500.02235174447, -0.028, 0.978, 0.164, 192.0, 0.0, 0.0, 0.0, 0.0, 0.0, 0.0, 0.0, 0.0, 0.0, 1.718467681891399E9, 0.0, 2024-06-15 11:08:01.891
13.0, 77247.76294800793, 61108.887029753576, 72480.89581500243, -187500.02235174447, 107704.98755037638, -187500.02235174447, -164462.05698991503, -187500.02235174447, -0.028, 0.978, 0.164, 192.0, 0.0, 0.0, 0.0, 0.0, 0.0, 0.0, 0.0, 0.0, 0.0, 1.7184676818914435E9, 0.0, 2024-06-15 11:08:01.891
14.0, 77367.97062968859, 62834.933440081295, 73488.73597249221, -187500.02235174447, 107536.34363846108, -187500.02235174447, -164234.98561799355, -187500.02235174447, -0.028, 0.978, 0.164, 192.0, 0.0, 0.0, 0.0, 0.0, 0.0, 0.0, 0.0, 0.0, 0.0, 1.7184676818914688E9, 0.0, 2024-06-15 11:08:01.891
15.0, 77326.39638500172, 63116.23014405133, 73664.75596007776, -187500.02235174447, 107520.27273419772, -187500.02235174447, -164130.17828824263, -187500.02235174447, -0.028, 0.978, 0.164, 192.0, 0.0, 0.0, 0.0, 0.0, 0.0, 0.0, 0.0, 0.0, 0.0, 1.7184676818914995E9, 0.0, 2024-06-15 11:08:01.891
16.0, 77221.90197967314, 61590.053032642965, 72715.56678003869, -187500.02235174447, 107594.01113915577, -187500.02235174447, -164330.18169762872, -187500.02235174447, -0.028, 0.978, 0.164, 192.0, 0.0, 0.0, 0.0, 0.0, 0.0, 0.0, 0.0, 0.0, 0.0, 1.7184676818915246E9, 0.0, 2024-06-15 11:08:01.891
17.0, 77228.38398556519, 60934.945754402375, 72373.51803463913, -187500.02235174447, 107829.66558094807, -187500.02235174447, -164422.4496987402, -187500.02235174447, -0.028, 0.978, 0.164, 192.0, 0.0, 0.0, 0.0, 0.0, 0.0, 0.0, 0.0, 0.0, 0.0, 1.7184676818915496E9, 0.0, 2024-06-15 11:08:01.891
18.0, 77341.41675727567, 62542.32675341687, 73314.23590352964, -187500.02235174447, 107673.04690754974, -187500.02235174447, -164241.2664581855, -187500.02235174447, -0.028, 0.972, 0.182, 192.0, 255.0, 32.0, 30.0, 96.0, 5.0, 176.0, 0.0, 0.0, 0.0, 1.718467681891559E9, 0.0, 2024-06-15 11:08:01.891
19.0, 77303.8434748463, 63226.33483723818, 73747.09978665112, -187500.02235174447, 107627.27053490527, -187500.02235174447, -164055.03172338387, -187500.02235174447, -0.028, 0.972, 0.182, 192.0, 0.0, 0.0, 0.0, 0.0, 0.0, 0.0, 0.0, 0.0, 0.0, 1.7184676818915682E9, 0.0, 2024-06-15 11:08:01.891
20.0, 77221.00790989494, 61886.43716412034, 72886.42351465506, -187500.02235174447, 107631.87499426305, -187500.02235174447, -164241.3111616744, -187500.02235174447, -0.028, 0.972, 0.182, 192.0, 0.0, 0.0, 0.0, 0.0, 0.0, 0.0, 0.0, 0.0, 0.0, 1.7184676818915772E9, 0.0, 2024-06-15 11:08:01.891
21.0, 77197.42681949459, 60850.52321559468, 72306.95453965123, -187500.02235174447, 107852.37495331466, -187500.02235174447, -164395.82877109395, -187500.02235174447, -0.028, 0.972, 0.182, 192.0, 0.0, 0.0, 0.0, 0.0, 0.0, 0.0, 0.0, 0.0, 0.0, 1.7184676818915863E9, 0.0, 2024-06-15 11:08:01.891
22.0, 77310.750163883, 62221.26629606084, 73120.7145000356, -187500.02235174447, 107776.11080123315, -187500.02235174447, -164218.4676788411, -187500.02235174447, -0.028, 0.972, 0.182, 192.0, 0.0, 0.0, 0.0, 0.0, 0.0, 0.0, 0.0, 0.0, 0.0, 1.7184676818915958E9, 0.0, 2024-06-15 11:08:01.891
23.0, 77316.87454186376, 63274.27932909481, 73775.68766780946, -187500.02235174447, 107693.02936709278, -187500.02235174447, -163992.96092903148, -187500.02235174447, -0.028, 0.972, 0.182, 192.0, 0.0, 0.0, 0.0, 0.0, 0.0, 0.0, 0.0, 0.0, 0.0, 1.7184676818916075E9, 0.0, 2024-06-15 11:08:01.891
24.0, 77220.53852326138, 62169.320841946705, 73063.42697899663, -187500.02235174447, 107680.82531462018, -187500.02235174447, -164127.69724460808, -187500.02235174447, -0.028, 0.972, 0.182, 192.0, 0.0, 0.0, 0.0, 0.0, 0.0, 0.0, 0.0, 0.0, 0.0, 1.7184676818916326E9, 0.0, 2024-06-15 11:08:01.891
25.0, 77191.50360721393, 60848.15393068242, 72291.57653946597, -187500.02235174447, 107852.2631945924, -187500.02235174447, -164364.91630851227, -187500.02235174447, -0.028, 0.972, 0.182, 192.0, 0.0, 0.0, 0.0, 0.0, 0.0, 0.0, 0.0, 0.0, 0.0, 1.7184676818916621E9, 0.0, 2024-06-15 11:08:01.891
26.0, 77301.96592831206, 61885.31957689758, 72919.95113133802, -187500.02235174447, 107842.56253749879, -187500.02235174447, -164247.25672569952, -187500.02235174447, -0.028, 0.972, 0.182, 192.0, 0.0, 0.0, 0.0, 0.0, 0.0, 0.0, 0.0, 0.0, 0.0, 1.7184676818916714E9, 0.0, 2024-06-15 11:08:01.891
27.0, 77352.36911205878, 63264.71278246794, 73766.43404560495, -187500.02235174447, 107715.60462899265, -187500.02235174447, -164022.35347299022, -187500.02235174447, -0.028, 0.972, 0.182, 192.0, 0.0, 0.0, 0.0, 0.0, 0.0, 0.0, 0.0, 0.0, 0.0, 1.718467681891698E9, 0.0, 2024-06-15 11:08:01.891
28.0, 77269.9358785076, 62471.87405489374, 73259.83175752542, -187500.02235174447, 107698.3714340176, -187500.02235174447, -164102.30566290685, -187500.02235174447, -0.022, 0.974, 0.188, 192.0, 255.0, 80.0, 30.0, 112.0, 5.0, 224.0, 0.0, 0.0, 0.0, 1.7184676818917067E9, 0.0, 2024-06-15 11:08:01.891
29.0, 77206.38986902116, 60948.66972549793, 72351.4792146062, -187500.02235174447, 107833.73359843894, -187500.02235174447, -164352.06405545046, -187500.02235174447, -0.022, 0.974, 0.188, 192.0, 0.0, 0.0, 0.0, 0.0, 0.0, 0.0, 0.0, 0.0, 0.0, 1.7184676818917158E9, 0.0, 2024-06-15 11:08:01.891
30.0, 77277.13314022221, 61559.81112239494, 72746.30042866473, -187500.02235174447, 107907.80727956383, -187500.02235174447, -164273.98941206807, -187500.02235174447, -0.022, 0.974, 0.188, 192.0, 0.0, 0.0, 0.0, 0.0, 0.0, 0.0, 0.0, 0.0, 0.0, 1.7184676818917248E9, 0.0, 2024-06-15 11:08:01.891
31.0, 77336.43231826214, 63160.844225984125, 73716.92493163644, -187500.02235174447, 107765.53842610579, -187500.02235174447, -164003.1533245031, -187500.02235174447, -0.022, 0.974, 0.188, 192.0, 0.0, 0.0, 0.0, 0.0, 0.0, 0.0, 0.0, 0.0, 0.0, 1.7184676818917336E9, 0.0, 2024-06-15 11:08:01.891
32.0, 77261.62102957023, 62729.67907544126, 73429.70501538576, -187500.02235174447, 107744.59484155117, -187500.02235174447, -163998.39240293414, -187500.02235174447, -0.022, 0.974, 0.188, 192.0, 0.0, 0.0, 0.0, 0.0, 0.0, 0.0, 0.0, 0.0, 0.0, 1.7184676818917432E9, 0.0, 2024-06-15 11:08:01.891
33.0, 77195.6163281937, 61119.19118394747, 72438.0475208816, -187500.02235174447, 107812.9017726066, -187500.02235174447, -164276.98454582508, -187500.02235174447, -0.022, 0.974, 0.188, 192.0, 0.0, 0.0, 0.0, 0.0, 0.0, 0.0, 0.0, 0.0, 0.0, 1.718467681891752E9, 0.0, 2024-06-15 11:08:01.891
34.0, 77251.54039282088, 61273.015889288894, 72565.13953985447, -187500.02235174447, 107943.90534685914, -187500.02235174447, -164278.7279818926, -187500.02235174447, -0.022, 0.974, 0.188, 192.0, 0.0, 0.0, 0.0, 0.0, 0.0, 0.0, 0.0, 0.0, 0.0, 1.7184676818917613E9, 0.0, 2024-06-15 11:08:01.891
35.0, 77337.0581671069, 62992.736755935766, 73593.5656539876, -187500.02235174447, 107780.35763267966, -187500.02235174447, -164027.20380153702, -187500.02235174447, -0.022, 0.974, 0.188, 192.0, 0.0, 0.0, 0.0, 0.0, 0.0, 0.0, 0.0, 0.0, 0.0, 1.71846768189177E9, 0.0, 2024-06-15 11:08:01.891
36.0, 77282.85518680277, 62954.38116245046, 73558.65222914841, -187500.02235174447, 107734.98359143539, -187500.02235174447, -163990.47988539696, -187500.02235174447, -0.022, 0.974, 0.188, 192.0, 0.0, 0.0, 0.0, 0.0, 0.0, 0.0, 0.0, 0.0, 0.0, 1.7184676818917787E9, 0.0, 2024-06-15 11:08:01.891
37.0, 77187.90497635663, 61357.63959379669, 72573.85672019205, -187500.02235174447, 107780.06706000175, -187500.02235174447, -164222.84862075432, -187500.02235174447, -0.022, 0.974, 0.188, 192.0, 0.0, 0.0, 0.0, 0.0, 0.0, 0.0, 0.0, 0.0, 0.0, 1.7184676818917875E9, 0.0, 2024-06-15 11:08:01.891
38.0, 77210.25672081193, 61042.30118302121, 72433.46541326826, -187500.02235174447, 107963.79839942437, -187500.02235174447, -164261.29362121745, -187500.02235174447, -0.022, 0.974, 0.188, 192.0, 0.0, 0.0, 0.0, 0.0, 0.0, 0.0, 0.0, 0.0, 0.0, 1.7184676818917966E9, 0.0, 2024-06-15 11:08:01.891
39.0, 77332.9007426382, 62750.89088092934, 73449.5310127176, -187500.02235174447, 107797.74728986589, -187500.02235174447, -164037.3738452642, -187500.02235174447, -0.022, 0.968, 0.194, 192.0, 255.0, 80.0, 30.0, 64.0, 6.0, 16.0, 0.0, 0.0, 0.0, 1.7184676818918056E9, 0.0, 2024-06-15 11:08:01.891
40.0, 77306.59273941431, 63132.34575180361, 73681.07273353013, -187500.02235174447, 107747.27705088581, -187500.02235174447, -163928.36438755566, -187500.02235174447, -0.022, 0.968, 0.194, 192.0, 0.0, 0.0, 0.0, 0.0, 0.0, 0.0, 0.0, 0.0, 0.0, 1.7184676818918145E9, 0.0, 2024-06-15 11:08:01.891
41.0, 77225.21003785254, 61656.52712065305, 72737.60560007162, -187500.02235174447, 107736.77173099182, -187500.02235174447, -164170.12085558425, -187500.02235174447, -0.022, 0.968, 0.194, 192.0, 0.0, 0.0, 0.0, 0.0, 0.0, 0.0, 0.0, 0.0, 0.0, 1.7184676818918247E9, 0.0, 2024-06-15 11:08:01.891
42.0, 77225.2770930859, 60917.310228027134, 72342.62792380189, -187500.02235174447, 107920.5254221589, -187500.02235174447, -164310.8921421638, -187500.02235174447, -0.022, 0.968, 0.194, 192.0, 0.0, 0.0, 0.0, 0.0, 0.0, 0.0, 0.0, 0.0, 0.0, 1.7184676818918335E9, 0.0, 2024-06-15 11:08:01.891
43.0, 77335.18062057265, 62480.904159653684, 73268.86186228537, -187500.02235174447, 107782.01166176936, -187500.02235174447, -164128.09957600827, -187500.02235174447, -0.022, 0.968, 0.194, 192.0, 0.0, 0.0, 0.0, 0.0, 0.0, 0.0, 0.0, 0.0, 0.0, 1.7184676818918424E9, 0.0, 2024-06-15 11:08:01.891
44.0, 77326.68695767963, 63256.487340508385, 73754.02882743227, -187500.02235174447, 107711.11192835712, -187500.02235174447, -163962.7637222724, -187500.02235174447, -0.022, 0.968, 0.194, 192.0, 0.0, 0.0, 0.0, 0.0, 0.0, 0.0, 0.0, 0.0, 0.0, 1.7184676818918586E9, 0.0, 2024-06-15 11:08:01.891
45.0, 77232.34024433378, 61960.55554873414, 72931.08230007677, -187500.02235174447, 107702.68532069748, -187500.02235174447, -164135.45329993407, -187500.02235174447, -0.022, 0.968, 0.194, 192.0, 0.0, 0.0, 0.0, 0.0, 0.0, 0.0, 0.0, 0.0, 0.0, 1.7184676818918679E9, 0.0, 2024-06-15 11:08:01.891
46.0, 77204.0205841089, 60849.24916616073, 72308.87678967438, -187500.02235174447, 107903.35928241722, -187500.02235174447, -164302.7337554376, -187500.02235174447, -0.022, 0.968, 0.194, 192.0, 0.0, 0.0, 0.0, 0.0, 0.0, 0.0, 0.0, 0.0, 0.0, 1.7184676818918767E9, 0.0, 2024-06-15 11:08:01.891
47.0, 77313.85705636228, 62143.72809454538, 73080.99545013851, -187500.02235174447, 107841.1543775981, -187500.02235174447, -164135.02861678944, -187500.02235174447, -0.022, 0.968, 0.194, 192.0, 0.0, 0.0, 0.0, 0.0, 0.0, 0.0, 0.0, 0.0, 0.0, 1.7184676818918855E9, 0.0, 2024-06-15 11:08:01.891
48.0, 77339.24863806351, 63279.57669253072, 73772.08903695215, -187500.02235174447, 107739.16336764854, -187500.02235174447, -163925.3916055431, -187500.02235174447, -0.022, 0.968, 0.194, 192.0, 0.0, 0.0, 0.0, 0.0, 0.0, 0.0, 0.0, 0.0, 0.0, 1.718467681891894E9, 0.0, 2024-06-15 11:08:01.891
49.0, 77241.2809421159, 62243.32746783823, 73102.40842132669, -187500.02235174447, 107721.61724825112, -187500.02235174447, -164033.7752144069, -187500.02235174447, -0.018000000000000002, 0.972, 0.2, 192.0, 255.0, 112.0, 30.0, 96.0, 6.0, 64.0, 0.0, 0.0, 0.0, 1.718467681891903E9, 0.0, 2024-06-15 11:08:01.891
50.0, 77178.04785705183, 60855.97704124177, 72285.45216148521, -187500.02235174447, 107882.95213972952, -187500.02235174447, -164245.9156210322, -187500.02235174447, -0.018000000000000002, 0.972, 0.2, 192.0, 0.0, 0.0, 0.0, 0.0, 0.0, 0.0, 0.0, 0.0, 0.0, 1.7184676818919115E9, 0.0, 2024-06-15 11:08:01.891
51.0, 77264.37029413824, 61788.26830247263, 72848.0455694253, -187500.02235174447, 107874.48082858096, -187500.02235174447, -164148.26084950697, -187500.02235174447, -0.018000000000000002, 0.972, 0.2, 192.0, 0.0, 0.0, 0.0, 0.0, 0.0, 0.0, 0.0, 0.0, 0.0, 1.7184676818919206E9, 0.0, 2024-06-15 11:08:01.891
52.0, 77323.08832682233, 63224.50199419284, 73716.76846942527, -187500.02235174447, 107721.46078603993, -187500.02235174447, -163940.76960572836, -187500.02235174447, -0.018000000000000002, 0.972, 0.2, 192.0, 0.0, 0.0, 0.0, 0.0, 0.0, 0.0, 0.0, 0.0, 0.0, 1.7184676818919296E9, 0.0, 2024-06-15 11:08:01.891
53.0, 77257.70947429055, 62521.606686306804, 73259.69764705868, -187500.02235174447, 107686.18973328946, -187500.02235174447, -164027.6731881706, -187500.02235174447, -0.018000000000000002, 0.972, 0.2, 192.0, 0.0, 0.0, 0.0, 0.0, 0.0, 0.0, 0.0, 0.0, 0.0, 1.7184676818919387E9, 0.0, 2024-06-15 11:08:01.891
54.0, 77189.49195021295, 60975.87179850004, 72343.90197323584, -187500.02235174447, 107814.198173785, -187500.02235174447, -164269.09438003236, -187500.02235174447, -0.018000000000000002, 0.972, 0.2, 192.0, 0.0, 0.0, 0.0, 0.0, 0.0, 0.0, 0.0, 0.0, 0.0, 1.7184676818919473E9, 0.0, 2024-06-15 11:08:01.891
55.0, 77262.24687841498, 61487.4138221042, 72682.30738428919, -187500.02235174447, 107903.29222718385, -187500.02235174447, -164202.26266411098, -187500.02235174447, -0.018000000000000002, 0.972, 0.2, 192.0, 0.0, 0.0, 0.0, 0.0, 0.0, 0.0, 0.0, 0.0, 0.0, 1.718467681891956E9, 0.0, 2024-06-15 11:08:01.891
56.0, 77335.82882116185, 63125.327304044644, 73671.93087004792, -187500.02235174447, 107743.07492292821, -187500.02235174447, -163951.07375992226, -187500.02235174447, -0.018000000000000002, 0.972, 0.2, 192.0, 0.0, 0.0, 0.0, 0.0, 0.0, 0.0, 0.0, 0.0, 0.0, 1.718467681891965E9, 0.0, 2024-06-15 11:08:01.891
57.0, 77271.16522445265, 62776.12600041938, 73442.15493704737, -187500.02235174447, 107709.90493415654, -187500.02235174447, -163953.28658262332, -187500.02235174447, -0.018000000000000002, 0.972, 0.2, 192.0, 0.0, 0.0, 0.0, 0.0, 0.0, 0.0, 0.0, 0.0, 0.0, 1.718467681891974E9, 0.0, 2024-06-15 11:08:01.891
58.0, 77186.09448505574, 61155.46806519843, 72452.37498907745, -187500.02235174447, 107788.96305429496, -187500.02235174447, -164197.85937045328, -187500.02235174447, -0.018000000000000002, 0.972, 0.2, 192.0, 0.0, 0.0, 0.0, 0.0, 0.0, 0.0, 0.0, 0.0, 0.0, 1.7184676818919828E9, 0.0, 2024-06-15 11:08:01.891
59.0, 77227.35580532024, 61196.52821976283, 72517.84324858704, -187500.02235174447, 107934.33880023228, -187500.02235174447, -164199.58045477635, -187500.02235174447, -0.016, 0.978, 0.198, 192.0, 255.0, 128.0, 30.0, 144.0, 6.0, 48.0, 0.0, 0.0, 0.0, 1.7184676818919916E9, 0.0, 2024-06-15 11:08:01.891
60.0, 77330.71027168159, 62917.79135677712, 73545.82232783108, -187500.02235174447, 107753.7367050334, -187500.02235174447, -163976.1077137122, -187500.02235174447, -0.016, 0.978, 0.198, 192.0, 0.0, 0.0, 0.0, 0.0, 0.0, 0.0, 0.0, 0.0, 0.0, 1.7184676818920004E9, 0.0, 2024-06-15 11:08:01.892
61.0, 77288.89015780571, 62975.19063653835, 73573.24791827773, -187500.02235174447, 107717.30336157125, -187500.02235174447, -163915.15450658256, -187500.02235174447, -0.016, 0.978, 0.198, 192.0, 0.0, 0.0, 0.0, 0.0, 0.0, 0.0, 0.0, 0.0, 0.0, 1.7184676818920093E9, 0.0, 2024-06-15 11:08:01.892
62.0, 77203.7747149199, 61400.599646639785, 72582.50684529624, -187500.02235174447, 107744.12545491761, -187500.02235174447, -164166.79044566042, -187500.02235174447, -0.016, 0.978, 0.198, 192.0, 0.0, 0.0, 0.0, 0.0, 0.0, 0.0, 0.0, 0.0, 0.0, 1.718467681892018E9, 0.0, 2024-06-15 11:08:01.892
63.0, 77212.67070921311, 60977.45877235637, 72375.57439512902, -187500.02235174447, 107924.9734193055, -187500.02235174447, -164247.5696501219, -187500.02235174447, -0.016, 0.978, 0.198, 192.0, 0.0, 0.0, 0.0, 0.0, 0.0, 0.0, 0.0, 0.0, 0.0, 1.718467681892027E9, 0.0, 2024-06-15 11:08:01.892
64.0, 77328.22922804704, 62667.988260744605, 73380.4641223507, -187500.02235174447, 107754.3849056226, -187500.02235174447, -164044.45934825653, -187500.02235174447, -0.016, 0.978, 0.198, 192.0, 0.0, 0.0, 0.0, 0.0, 0.0, 0.0, 0.0, 0.0, 0.0, 1.7184676818920355E9, 0.0, 2024-06-15 11:08:01.892
65.0, 77290.11950375074, 63133.865670426574, 73680.35747770757, -187500.02235174447, 107717.05749238223, -187500.02235174447, -163887.86302660263, -187500.02235174447, -0.016, 0.978, 0.198, 192.0, 0.0, 0.0, 0.0, 0.0, 0.0, 0.0, 0.0, 0.0, 0.0, 1.7184676818920467E9, 0.0, 2024-06-15 11:08:01.892
66.0, 77191.25773802493, 61676.97896682966, 72756.98456251438, -187500.02235174447, 107730.84851871117, -187500.02235174447, -164076.69056376108, -187500.02235174447, -0.016, 0.978, 0.198, 192.0, 0.0, 0.0, 0.0, 0.0, 0.0, 0.0, 0.0, 0.0, 0.0, 1.7184676818920555E9, 0.0, 2024-06-15 11:08:01.892
67.0, 77173.80102560532, 60838.85560498901, 72296.67273720178, -187500.02235174447, 107943.39125673668, -187500.02235174447, -164196.07123089687, -187500.02235174447, -0.016, 0.978, 0.198, 192.0, 0.0, 0.0, 0.0, 0.0, 0.0, 0.0, 0.0, 0.0, 0.0, 1.718467681892064E9, 0.0, 2024-06-15 11:08:01.892
68.0, 77306.77155336995, 62357.321364560295, 73186.51803571201, -187500.02235174447, 107810.71130164996, -187500.02235174447, -164034.49047022944, -187500.02235174447, -0.016, 0.978, 0.198, 192.0, 0.0, 0.0, 0.0, 0.0, 0.0, 0.0, 0.0, 0.0, 0.0, 1.7184676818920732E9, 0.0, 2024-06-15 11:08:01.892
69.0, 77319.02030933146, 63226.58070642719, 73732.28058007725, -187500.02235174447, 107722.42191105151, -187500.02235174447, -163873.71437236242, -187500.02235174447, -0.022, 0.976, 0.198, 192.0, 255.0, 80.0, 30.0, 128.0, 6.0, 48.0, 0.0, 0.0, 0.0, 1.718467681892082E9, 0.0, 2024-06-15 11:08:01.892
70.0, 77218.59392149377, 61989.031671170196, 72943.97925662747, -187500.02235174447, 107704.4734602539, -187500.02235174447, -164044.41464476762, -187500.02235174447, -0.022, 0.976, 0.198, 192.0, 0.0, 0.0, 0.0, 0.0, 0.0, 0.0, 0.0, 0.0, 0.0, 1.7184676818920906E9, 0.0, 2024-06-15 11:08:01.892
71.0, 77176.23736575096, 60810.96062790879, 72286.23447254115, -187500.02235174447, 107912.1211662437, -187500.02235174447, -164214.44436483915, -187500.02235174447, -0.022, 0.976, 0.198, 192.0, 0.0, 0.0, 0.0, 0.0, 0.0, 0.0, 0.0, 0.0, 0.0, 1.7184676818920996E9, 0.0, 2024-06-15 11:08:01.892
72.0, 77290.16420723966, 62038.65254386098, 73020.24340870898, -187500.02235174447, 107856.01828766087, -187500.02235174447, -164074.99183118247, -187500.02235174447, -0.022, 0.976, 0.198, 192.0, 0.0, 0.0, 0.0, 0.0, 0.0, 0.0, 0.0, 0.0, 0.0, 1.7184676818921084E9, 0.0, 2024-06-15 11:08:01.892
73.0, 77319.91437910967, 63257.64963122006, 73761.29314438024, -187500.02235174447, 107731.18379487799, -187500.02235174447, -163876.4859886749, -187500.02235174447, -0.022, 0.976, 0.198, 192.0, 0.0, 0.0, 0.0, 0.0, 0.0, 0.0, 0.0, 0.0, 0.0, 1.7184676818921173E9, 0.0, 2024-06-15 11:08:01.892
74.0, 77234.44130831258, 62298.22335222046, 73133.67851181967, -187500.02235174447, 107698.23732355087, -187500.02235174447, -164012.54105717436, -187500.02235174447, -0.022, 0.976, 0.198, 192.0, 0.0, 0.0, 0.0, 0.0, 0.0, 0.0, 0.0, 0.0, 0.0, 1.718467681892126E9, 0.0, 2024-06-15 11:08:01.892
75.0, 77178.47254019648, 60863.73309656777, 72296.15864707931, -187500.02235174447, 107859.41575281808, -187500.02235174447, -164246.20619371012, -187500.02235174447, -0.022, 0.976, 0.198, 192.0, 0.0, 0.0, 0.0, 0.0, 0.0, 0.0, 0.0, 0.0, 0.0, 1.718467681892135E9, 0.0, 2024-06-15 11:08:01.892
76.0, 77273.42275064264, 61705.768013688095, 72816.75312718787, -187500.02235174447, 107872.84915123573, -187500.02235174447, -164160.57666070183, -187500.02235174447, -0.022, 0.976, 0.198, 192.0, 0.0, 0.0, 0.0, 0.0, 0.0, 0.0, 0.0, 0.0, 0.0, 1.7184676818921435E9, 0.0, 2024-06-15 11:08:01.892
77.0, 77330.95614087059, 63200.40681367002, 73730.47008877636, -187500.02235174447, 107738.04578042577, -187500.02235174447, -163899.75415465285, -187500.02235174447, -0.022, 0.976, 0.198, 192.0, 0.0, 0.0, 0.0, 0.0, 0.0, 0.0, 0.0, 0.0, 0.0, 1.7184676818921523E9, 0.0, 2024-06-15 11:08:01.892
78.0, 77244.74546250647, 62567.0701345289, 73314.68293841874, -187500.02235174447, 107712.922419658, -187500.02235174447, -163935.15931787007, -187500.02235174447, -0.022, 0.976, 0.198, 192.0, 0.0, 0.0, 0.0, 0.0, 0.0, 0.0, 0.0, 0.0, 0.0, 1.7184676818921616E9, 0.0, 2024-06-15 11:08:01.892
79.0, 77168.19073774705, 60986.041842227205, 72360.7328368107, -187500.02235174447, 107824.14470006761, -187500.02235174447, -164184.09069586883, -187500.02235174447, -0.022, 0.976, 0.198, 192.0, 0.0, 0.0, 0.0, 0.0, 0.0, 0.0, 0.0, 0.0, 0.0, 1.7184676818921704E9, 0.0, 2024-06-15 11:08:01.892
80.0, 77239.5375060484, 61389.33436743431, 72632.08301449812, -187500.02235174447, 107915.13865174516, -187500.02235174447, -164148.05968380687, -187500.02235174447, -0.018000000000000002, 0.974, 0.20400000000000001, 192.0, 255.0, 112.0, 30.0, 112.0, 6.0, 96.0, 0.0, 0.0, 0.0, 1.7184676818921793E9, 0.0, 2024-06-15 11:08:01.892
81.0, 77322.30601576639, 63058.40618114545, 73634.44699459636, -187500.02235174447, 107731.56377453373, -187500.02235174447, -163914.50630599336, -187500.02235174447, -0.018000000000000002, 0.974, 0.20400000000000001, 192.0, 0.0, 0.0, 0.0, 0.0, 0.0, 0.0, 0.0, 0.0, 0.0, 1.718467681892188E9, 0.0, 2024-06-15 11:08:01.892
82.0, 77252.36740736573, 62806.94905602325, 73468.4405885268, -187500.02235174447, 107696.7174049279, -187500.02235174447, -163900.2905965198, -187500.02235174447, -0.018000000000000002, 0.974, 0.20400000000000001, 192.0, 0.0, 0.0, 0.0, 0.0, 0.0, 0.0, 0.0, 0.0, 0.0, 1.7184676818921971E9, 0.0, 2024-06-15 11:08:01.892
83.0, 77172.214051749, 61184.81590566825, 72468.06591368507, -187500.02235174447, 107759.34699289167, -187500.02235174447, -164167.23748054952, -187500.02235174447, -0.018000000000000002, 0.974, 0.20400000000000001, 192.0, 0.0, 0.0, 0.0, 0.0, 0.0, 0.0, 0.0, 0.0, 0.0, 1.718467681892206E9, 0.0, 2024-06-15 11:08:01.892
84.0, 77221.16437210613, 61128.06482649623, 72481.32049814708, -187500.02235174447, 107918.6702273691, -187500.02235174447, -164197.50174254202, -187500.02235174447, -0.018000000000000002, 0.974, 0.20400000000000001, 192.0, 0.0, 0.0, 0.0, 0.0, 0.0, 0.0, 0.0, 0.0, 0.0, 1.7184676818922153E9, 0.0, 2024-06-15 11:08:01.892
85.0, 77317.20981803058, 62861.353202027465, 73513.97109198227, -187500.02235174447, 107728.81450996573, -187500.02235174447, -163968.5081205974, -187500.02235174447, -0.018000000000000002, 0.974, 0.20400000000000001, 192.0, 0.0, 0.0, 0.0, 0.0, 0.0, 0.0, 0.0, 0.0, 0.0, 1.7184676818922243E9, 0.0, 2024-06-15 11:08:01.892
86.0, 77270.3382099078, 63013.38976781247, 73605.79205820466, -187500.02235174447, 107680.4676867089, -187500.02235174447, -163892.6462999161, -187500.02235174447, -0.018000000000000002, 0.974, 0.20400000000000001, 192.0, 0.0, 0.0, 0.0, 0.0, 0.0, 0.0, 0.0, 0.0, 0.0, 1.718467681892233E9, 0.0, 2024-06-15 11:08:01.892
87.0, 77182.5182059429, 61455.29436532192, 72633.87115405455, -187500.02235174447, 107721.75135871785, -187500.02235174447, -164127.87605856374, -187500.02235174447, -0.018000000000000002, 0.974, 0.20400000000000001, 192.0, 0.0, 0.0, 0.0, 0.0, 0.0, 0.0, 0.0, 0.0, 0.0, 1.718467681892244E9, 0.0, 2024-06-15 11:08:01.892
88.0, 77196.8680258832, 60933.93992590188, 72374.34504918398, -187500.02235174447, 107931.79070136437, -187500.02235174447, -164209.81755373688, -187500.02235174447, -0.018000000000000002, 0.974, 0.20400000000000001, 192.0, 0.0, 0.0, 0.0, 0.0, 0.0, 0.0, 0.0, 0.0, 0.0, 1.7184676818922527E9, 0.0, 2024-06-15 11:08:01.892
89.0, 77312.35948948377, 62592.417012741214, 73348.50112777963, -187500.02235174447, 107763.72793480492, -187500.02235174447, -164004.53913265935, -187500.02235174447, -0.018000000000000002, 0.974, 0.20400000000000001, 192.0, 0.0, 0.0, 0.0, 0.0, 0.0, 0.0, 0.0, 0.0, 0.0, 1.7184676818922615E9, 0.0, 2024-06-15 11:08:01.892
90.0, 77284.30805019237, 63157.51381606029, 73701.41282098446, -187500.02235174447, 107699.15374507353, -187500.02235174447, -163867.41118042605, -187500.02235174447, -0.02, 0.972, 0.202, 192.0, 255.0, 96.0, 30.0, 96.0, 6.0, 80.0, 0.0, 0.0, 0.0, 1.7184676818922706E9, 0.0, 2024-06-15 11:08:01.892
91.0, 77183.34522048774, 61739.00505769313, 72800.16813280203, -187500.02235174447, 107708.78734693376, -187500.02235174447, -164063.45833104354, -187500.02235174447, -0.02, 0.972, 0.202, 192.0, 0.0, 0.0, 0.0, 0.0, 0.0, 0.0, 0.0, 0.0, 0.0, 1.7184676818922796E9, 0.0, 2024-06-15 11:08:01.892
92.0, 77164.54740340084, 60807.786680196135, 72294.2140453117, -187500.02235174447, 107938.16094853413, -187500.02235174447, -164187.01877439246, -187500.02235174447, -0.02, 0.972, 0.202, 192.0, 0.0, 0.0, 0.0, 0.0, 0.0, 0.0, 0.0, 0.0, 0.0, 1.7184676818922884E9, 0.0, 2024-06-15 11:08:01.892
93.0, 77288.71134385007, 62265.858026249174, 73157.39371268675, -187500.02235174447, 107826.29046753532, -187500.02235174447, -164001.2087227355, -187500.02235174447, -0.02, 0.972, 0.202, 192.0, 0.0, 0.0, 0.0, 0.0, 0.0, 0.0, 0.0, 0.0, 0.0, 1.7184676818922973E9, 0.0, 2024-06-15 11:08:01.892
94.0, 77324.47413497855, 63230.38050298459, 73746.31747559518, -187500.02235174447, 107713.86119292512, -187500.02235174447, -163839.8738312571, -187500.02235174447, -0.02, 0.972, 0.202, 192.0, 0.0, 0.0, 0.0, 0.0, 0.0, 0.0, 0.0, 0.0, 0.0, 1.7184676818923063E9, 0.0, 2024-06-15 11:08:01.892
95.0, 77243.24789562797, 62058.97027957086, 72997.24346366448, -187500.02235174447, 107697.49971598384, -187500.02235174447, -164012.33989147426, -187500.02235174447, -0.02, 0.972, 0.202, 192.0, 0.0, 0.0, 0.0, 0.0, 0.0, 0.0, 0.0, 0.0, 0.0, 1.7184676818923151E9, 0.0, 2024-06-15 11:08:01.892
96.0, 77199.99727010695, 60810.53594476413, 72293.85641740041, -187500.02235174447, 107895.75968930242, -187500.02235174447, -164222.22277190958, -187500.02235174447, -0.02, 0.972, 0.202, 192.0, 0.0, 0.0, 0.0, 0.0, 0.0, 0.0, 0.0, 0.0, 0.0, 1.718467681892324E9, 0.0, 2024-06-15 11:08:01.892
97.0, 77297.00384104298, 61956.46517949882, 73005.91594051314, -187500.02235174447, 107870.43516283455, -187500.02235174447, -164062.69837173205, -187500.02235174447, -0.02, 0.972, 0.202, 192.0, 0.0, 0.0, 0.0, 0.0, 0.0, 0.0, 0.0, 0.0, 0.0, 1.7184676818923333E9, 0.0, 2024-06-15 11:08:01.892
98.0, 77337.66166420719, 63246.45140724795, 73789.05401099373, -187500.02235174447, 107729.66387625503, -187500.02235174447, -163837.3704358781, -187500.02235174447, -0.02, 0.972, 0.202, 192.0, 0.0, 0.0, 0.0, 0.0, 0.0, 0.0, 0.0, 0.0, 0.0, 1.718467681892342E9, 0.0, 2024-06-15 11:08:01.892
99.0, 77247.83000324131, 62354.52739650338, 73203.77358243152, -187500.02235174447, 107701.45597475243, -187500.02235174447, -163939.182631872, -187500.02235174447, -0.02, 0.972, 0.202, 192.0, 0.0, 0.0, 0.0, 0.0, 0.0, 0.0, 0.0, 0.0, 0.0, 1.7184676818923512E9, 0.0, 2024-06-15 11:08:01.892
100.0, 77188.39671473464, 60876.29477695165, 72327.2275718722, -187500.02235174447, 107860.42158131857, -187500.02235174447, -164186.83996043683, -187500.02235174447, -0.022, 0.972, 0.198, 192.0, 255.0, 80.0, 30.0, 96.0, 6.0, 48.0, 0.0, 0.0, 0.0, 1.71846768189236E9, 0.0, 2024-06-15 11:08:01.892
101.0, 77283.65984960317, 61626.128748193834, 72787.91937684052, -187500.02235174447, 107885.20966591951, -187500.02235174447, -164125.73029109603, -187500.02235174447, -0.022, 0.972, 0.198, 192.0, 0.0, 0.0, 0.0, 0.0, 0.0, 0.0, 0.0, 0.0, 0.0, 1.7184676818923695E9, 0.0, 2024-06-15 11:08:01.892
102.0, 77339.91919039717, 63181.58664483865, 73727.13967885253, -187500.02235174447, 107710.88841091256, -187500.02235174447, -163892.7804103828, -187500.02235174447, -0.022, 0.972, 0.198, 192.0, 0.0, 0.0, 0.0, 0.0, 0.0, 0.0, 0.0, 0.0, 0.0, 1.7184676818923786E9, 0.0, 2024-06-15 11:08:01.892
103.0, 77256.01074171194, 62636.047617917975, 73373.93741296977, -187500.02235174447, 107686.7708786453, -187500.02235174447, -163916.16033508306, -187500.02235174447, -0.022, 0.972, 0.198, 192.0, 0.0, 0.0, 0.0, 0.0, 0.0, 0.0, 0.0, 0.0, 0.0, 1.7184676818923872E9, 0.0, 2024-06-15 11:08:01.892
104.0, 77176.90791808462, 61029.381874726045, 72405.43632572131, -187500.02235174447, 107812.36533073966, -187500.02235174447, -164150.56307918587, -187500.02235174447, -0.022, 0.972, 0.198, 192.0, 0.0, 0.0, 0.0, 0.0, 0.0, 0.0, 0.0, 0.0, 0.0, 1.7184676818923965E9, 0.0, 2024-06-15 11:08:01.892
105.0, 77241.95149444956, 61321.809747434825, 72611.9887962328, -187500.02235174447, 107922.33591345977, -187500.02235174447, -164129.70890160906, -187500.02235174447, -0.022, 0.972, 0.198, 192.0, 0.0, 0.0, 0.0, 0.0, 0.0, 0.0, 0.0, 0.0, 0.0, 1.7184676818924055E9, 0.0, 2024-06-15 11:08:01.892
106.0, 77337.16992582916, 63026.15261389645, 73628.50143057125, -187500.02235174447, 107724.56767851922, -187500.02235174447, -163901.25172153136, -187500.02235174447, -0.022, 0.972, 0.198, 192.0, 0.0, 0.0, 0.0, 0.0, 0.0, 0.0, 0.0, 0.0, 0.0, 1.718467681892414E9, 0.0, 2024-06-15 11:08:01.892
107.0, 77287.05731476037, 62875.09952486748, 73529.72907182325, -187500.02235174447, 107689.54249495776, -187500.02235174447, -163872.19445373947, -187500.02235174447, -0.022, 0.972, 0.198, 192.0, 0.0, 0.0, 0.0, 0.0, 0.0, 0.0, 0.0, 0.0, 0.0, 1.7184676818924234E9, 0.0, 2024-06-15 11:08:01.892
108.0, 77200.6678224406, 61262.28705195035, 72541.93842910987, -187500.02235174447, 107765.82899878372, -187500.02235174447, -164118.55538112586, -187500.02235174447, -0.022, 0.972, 0.198, 192.0, 0.0, 0.0, 0.0, 0.0, 0.0, 0.0, 0.0, 0.0, 0.0, 1.7184676818924344E9, 0.0, 2024-06-15 11:08:01.892
109.0, 77229.99331116598, 61084.389517830554, 72481.25344291372, -187500.02235174447, 107936.75278863344, -187500.02235174447, -164158.9002798677, -187500.02235174447, -0.022, 0.972, 0.198, 192.0, 0.0, 0.0, 0.0, 0.0, 0.0, 0.0, 0.0, 0.0, 0.0, 1.7184676818924432E9, 0.0, 2024-06-15 11:08:01.892
110.0, 77345.77534744446, 62812.53699213708, 73503.28695813262, -187500.02235174447, 107734.78242573529, -187500.02235174447, -163957.62282104764, -187500.02235174447, -0.024, 0.97, 0.196, 192.0, 255.0, 64.0, 30.0, 80.0, 6.0, 32.0, 0.0, 0.0, 0.0, 1.7184676818924527E9, 0.0, 2024-06-15 11:08:01.892
111.0, 77296.55680615388, 63064.374096915024, 73667.16994847894, -187500.02235174447, 107696.62799795008, -187500.02235174447, -163857.50935763234, -187500.02235174447, -0.024, 0.97, 0.196, 192.0, 0.0, 0.0, 0.0, 0.0, 0.0, 0.0, 0.0, 0.0, 0.0, 1.7184676818924663E9, 0.0, 2024-06-15 11:08:01.892
112.0, 77204.24410155346, 61528.89865981325, 72699.96526240889, -187500.02235174447, 107727.07107389822, -187500.02235174447, -164086.4359243436, -187500.02235174447, -0.024, 0.97, 0.196, 192.0, 0.0, 0.0, 0.0, 0.0, 0.0, 0.0, 0.0, 0.0, 0.0, 1.7184676818924751E9, 0.0, 2024-06-15 11:08:01.892
113.0, 77204.4229155091, 60902.75924238673, 72378.43541841929, -187500.02235174447, 107934.31644848782, -187500.02235174447, -164192.83022795085, -187500.02235174447, -0.024, 0.97, 0.196, 192.0, 0.0, 0.0, 0.0, 0.0, 0.0, 0.0, 0.0, 0.0, 0.0, 1.718467681892484E9, 0.0, 2024-06-15 11:08:01.892
114.0, 77315.04169881842, 62526.501718342515, 73342.33204630995, -187500.02235174447, 107780.15646697956, -187500.02235174447, -163991.37395517516, -187500.02235174447, -0.024, 0.97, 0.196, 192.0, 0.0, 0.0, 0.0, 0.0, 0.0, 0.0, 0.0, 0.0, 0.0, 1.7184676818924928E9, 0.0, 2024-06-15 11:08:01.892
115.0, 77301.11656202275, 63182.97245299488, 73753.1571093985, -187500.02235174447, 107708.83205042269, -187500.02235174447, -163845.52882260428, -187500.02235174447, -0.024, 0.97, 0.196, 192.0, 0.0, 0.0, 0.0, 0.0, 0.0, 0.0, 0.0, 0.0, 0.0, 1.7184676818925016E9, 0.0, 2024-06-15 11:08:01.892
116.0, 77207.14982833265, 61812.587000440006, 72880.52265411886, -187500.02235174447, 107706.93215214399, -187500.02235174447, -164053.44474952755, -187500.02235174447, -0.024, 0.97, 0.196, 192.0, 0.0, 0.0, 0.0, 0.0, 0.0, 0.0, 0.0, 0.0, 0.0, 1.7184676818925107E9, 0.0, 2024-06-15 11:08:01.892
117.0, 77172.0128860489, 60800.298845803605, 72325.52883929359, -187500.02235174447, 107930.18137576358, -187500.02235174447, -164208.252931625, -187500.02235174447, -0.024, 0.97, 0.196, 192.0, 0.0, 0.0, 0.0, 0.0, 0.0, 0.0, 0.0, 0.0, 0.0, 1.7184676818925197E9, 0.0, 2024-06-15 11:08:01.892
118.0, 77275.76968381045, 62189.99620556786, 73150.79994807244, -187500.02235174447, 107838.47216826347, -187500.02235174447, -164028.70136841552, -187500.02235174447, -0.024, 0.97, 0.196, 192.0, 0.0, 0.0, 0.0, 0.0, 0.0, 0.0, 0.0, 0.0, 0.0, 1.7184676818925283E9, 0.0, 2024-06-15 11:08:01.892
119.0, 77286.29735544889, 63224.45729070393, 73785.18715920296, -187500.02235174447, 107730.89322220007, -187500.02235174447, -163828.0721101847, -187500.02235174447, -0.024, 0.97, 0.196, 192.0, 0.0, 0.0, 0.0, 0.0, 0.0, 0.0, 0.0, 0.0, 0.0, 1.718467681892537E9, 0.0, 2024-06-15 11:08:01.892
120.0, 77199.1255520732, 62096.700024211415, 73055.84973762628, -187500.02235174447, 107706.68628295498, -187500.02235174447, -163975.3030509118, -187500.02235174447, -0.024, 0.97, 0.196, 192.0, 0.0, 0.0, 0.0, 0.0, 0.0, 0.0, 0.0, 0.0, 0.0, 1.718467681892546E9, 0.0, 2024-06-15 11:08:01.892
121.0, 77156.6125341192, 60780.852828127485, 72300.83016167047, -187500.02235174447, 107901.32527367178, -187500.02235174447, -164181.87787316774, -187500.02235174447, -0.026000000000000002, 0.974, 0.194, 192.0, 255.0, 48.0, 30.0, 112.0, 6.0, 16.0, 0.0, 0.0, 0.0, 1.718467682371292E9, 0.0, 2024-06-15 11:08:02.371
122.0, 77251.76391026544, 61840.45962577577, 72943.28635254936, -187500.02235174447, 107875.0619739368, -187500.02235174447, -164060.73141821998, -187500.02235174447, -0.026000000000000002, 0.974, 0.194, 192.0, 0.0, 0.0, 0.0, 0.0, 0.0, 0.0, 0.0, 0.0, 0.0, 1.7184676823714044E9, 0.0, 2024-06-15 11:08:02.371
123.0, 77289.89598630619, 63209.07929051868, 73777.25228992132, -187500.02235174447, 107723.40538780754, -187500.02235174447, -163837.25867715583, -187500.02235174447, -0.026000000000000002, 0.974, 0.194, 192.0, 0.0, 0.0, 0.0, 0.0, 0.0, 0.0, 0.0, 0.0, 0.0, 1.7184676823714273E9, 0.0, 2024-06-15 11:08:02.371
124.0, 77198.87968288419, 62392.77123126641, 73249.37114112034, -187500.02235174447, 107708.76499518931, -187500.02235174447, -163898.6365674301, -187500.02235174447, -0.026000000000000002, 0.974, 0.194, 192.0, 0.0, 0.0, 0.0, 0.0, 0.0, 0.0, 0.0, 0.0, 0.0, 1.7184676823714628E9, 0.0, 2024-06-15 11:08:02.371
125.0, 77128.22581866095, 60870.25980594871, 72350.2275169167, -187500.02235174447, 107876.53718907085, -187500.02235174447, -164115.20261945756, -187500.02235174447, -0.026000000000000002, 0.974, 0.194, 192.0, 0.0, 0.0, 0.0, 0.0, 0.0, 0.0, 0.0, 0.0, 0.0, 1.7184676823714724E9, 0.0, 2024-06-15 11:08:02.371
126.0, 77218.07983137129, 61520.53910738696, 72754.34705666864, -187500.02235174447, 107933.51178568743, -187500.02235174447, -164039.78783366535, -187500.02235174447, -0.026000000000000002, 0.974, 0.194, 192.0, 0.0, 0.0, 0.0, 0.0, 0.0, 0.0, 0.0, 0.0, 0.0, 1.7184676823714817E9, 0.0, 2024-06-15 11:08:02.371
127.0, 77305.58691091381, 63123.87444065505, 73711.26994028926, -187500.02235174447, 107733.46367281243, -187500.02235174447, -163831.3801683641, -187500.02235174447, -0.026000000000000002, 0.974, 0.194, 192.0, 0.0, 0.0, 0.0, 0.0, 0.0, 0.0, 0.0, 0.0, 0.0, 1.7184676823714924E9, 0.0, 2024-06-15 11:08:02.371
128.0, 77229.25570359894, 62666.78126654402, 73417.5233146576, -187500.02235174447, 107703.84761140915, -187500.02235174447, -163848.92628776148, -187500.02235174447, -0.026000000000000002, 0.974, 0.194, 192.0, 0.0, 0.0, 0.0, 0.0, 0.0, 0.0, 0.0, 0.0, 0.0, 1.7184676823715014E9, 0.0, 2024-06-15 11:08:02.371
129.0, 77157.57365913078, 61045.20690980041, 72436.39349179191, -187500.02235174447, 107806.33035973673, -187500.02235174447, -164107.11128796474, -187500.02235174447, -0.026000000000000002, 0.974, 0.194, 192.0, 0.0, 0.0, 0.0, 0.0, 0.0, 0.0, 0.0, 0.0, 0.0, 1.7184676823715105E9, 0.0, 2024-06-15 11:08:02.371
130.0, 77216.85048542626, 61227.105406177696, 72580.51754003973, -187500.02235174447, 107926.91802107311, -187500.02235174447, -164107.6924333206, -187500.02235174447, -0.026000000000000002, 0.974, 0.194, 192.0, 0.0, 0.0, 0.0, 0.0, 0.0, 0.0, 0.0, 0.0, 0.0, 1.71846768237152E9, 0.0, 2024-06-15 11:08:02.371
131.0, 77316.15928604118, 62955.386990950945, 73610.46357279582, -187500.02235174447, 107719.29266682777, -187500.02235174447, -163889.7852766258, -187500.02235174447, -0.026000000000000002, 0.976, 0.198, 192.0, 255.0, 48.0, 30.0, 128.0, 6.0, 48.0, 0.0, 0.0, 0.0, 1.718467682371529E9, 0.0, 2024-06-15 11:08:02.371
132.0, 77256.30131438987, 62896.49014431121, 73576.42186599039, -187500.02235174447, 107695.37630026058, -187500.02235174447, -163831.33546487516, -187500.02235174447, -0.026000000000000002, 0.976, 0.198, 192.0, 0.0, 0.0, 0.0, 0.0, 0.0, 0.0, 0.0, 0.0, 0.0, 1.7184676823715384E9, 0.0, 2024-06-15 11:08:02.371
133.0, 77167.98957204695, 61286.85161910673, 72581.12103714002, -187500.02235174447, 107763.66087957154, -187500.02235174447, -164064.03947639937, -187500.02235174447, -0.026000000000000002, 0.976, 0.198, 192.0, 0.0, 0.0, 0.0, 0.0, 0.0, 0.0, 0.0, 0.0, 0.0, 1.7184676823715472E9, 0.0, 2024-06-15 11:08:02.371
134.0, 77209.40735452263, 61003.74442383581, 72452.21852686627, -187500.02235174447, 107944.06180907034, -187500.02235174447, -164129.77595684244, -187500.02235174447, -0.026000000000000002, 0.976, 0.198, 192.0, 0.0, 0.0, 0.0, 0.0, 0.0, 0.0, 0.0, 0.0, 0.0, 1.718467682371556E9, 0.0, 2024-06-15 11:08:02.371
135.0, 77318.75208839799, 62724.58287770544, 73473.84971068498, -187500.02235174447, 107754.27314690032, -187500.02235174447, -163917.65790196156, -187500.02235174447, -0.026000000000000002, 0.976, 0.198, 192.0, 0.0, 0.0, 0.0, 0.0, 0.0, 0.0, 0.0, 0.0, 0.0, 1.718467682371566E9, 0.0, 2024-06-15 11:08:02.371
136.0, 77289.87363456174, 63074.90176855347, 73692.87445460254, -187500.02235174447, 107698.14791657304, -187500.02235174447, -163813.29760709972, -187500.02235174447, -0.026000000000000002, 0.976, 0.198, 192.0, 0.0, 0.0, 0.0, 0.0, 0.0, 0.0, 0.0, 0.0, 0.0, 1.7184676823715749E9, 0.0, 2024-06-15 11:08:02.371
137.0, 77202.43361025258, 61574.049183612966, 72747.46271937642, -187500.02235174447, 107710.1284516011, -187500.02235174447, -164045.48752850146, -187500.02235174447, -0.026000000000000002, 0.976, 0.198, 192.0, 0.0, 0.0, 0.0, 0.0, 0.0, 0.0, 0.0, 0.0, 0.0, 1.7184676823715837E9, 0.0, 2024-06-15 11:08:02.371
138.0, 77187.92732810108, 60844.7117620363, 72369.60647935946, -187500.02235174447, 107931.74599787546, -187500.02235174447, -164155.21224203258, -187500.02235174447, -0.026000000000000002, 0.976, 0.198, 192.0, 0.0, 0.0, 0.0, 0.0, 0.0, 0.0, 0.0, 0.0, 0.0, 1.7184676823715925E9, 0.0, 2024-06-15 11:08:02.371
139.0, 77304.22345450205, 62421.18029846911, 73303.17179002427, -187500.02235174447, 107787.08550776071, -187500.02235174447, -163958.3604286147, -187500.02235174447, -0.026000000000000002, 0.976, 0.198, 192.0, 0.0, 0.0, 0.0, 0.0, 0.0, 0.0, 0.0, 0.0, 0.0, 1.7184676823716013E9, 0.0, 2024-06-15 11:08:02.371
140.0, 77317.36628024177, 63187.21928444139, 73772.5137200968, -187500.02235174447, 107690.32480601368, -187500.02235174447, -163826.19456365044, -187500.02235174447, -0.026000000000000002, 0.976, 0.198, 192.0, 0.0, 0.0, 0.0, 0.0, 0.0, 0.0, 0.0, 0.0, 0.0, 1.7184676823716106E9, 0.0, 2024-06-15 11:08:02.371
141.0, 77209.20618882253, 61876.58004481555, 72947.89081190716, -187500.02235174447, 107707.53564924428, -187500.02235174447, -163980.06397248077, -187500.02235174447, -0.02, 0.97, 0.202, 192.0, 255.0, 96.0, 30.0, 80.0, 6.0, 80.0, 0.0, 0.0, 0.0, 1.7184676823716197E9, 0.0, 2024-06-15 11:08:02.371
142.0, 77187.45794146752, 60781.38926999441, 72324.03127241509, -187500.02235174447, 107929.42141645211, -187500.02235174447, -164142.91878258216, -187500.02235174447, -0.02, 0.97, 0.202, 192.0, 0.0, 0.0, 0.0, 0.0, 0.0, 0.0, 0.0, 0.0, 0.0, 1.7184676823716288E9, 0.0, 2024-06-15 11:08:02.371
143.0, 77313.38766972872, 62105.12663187106, 73103.34719459382, -187500.02235174447, 107823.60825820068, -187500.02235174447, -164019.85007761122, -187500.02235174447, -0.02, 0.97, 0.202, 192.0, 0.0, 0.0, 0.0, 0.0, 0.0, 0.0, 0.0, 0.0, 0.0, 1.7184676823716378E9, 0.0, 2024-06-15 11:08:02.371
144.0, 77321.79192564392, 63228.68177040599, 73805.7731158463, -187500.02235174447, 107713.9729516474, -187500.02235174447, -163798.8136766927, -187500.02235174447, -0.02, 0.97, 0.202, 192.0, 0.0, 0.0, 0.0, 0.0, 0.0, 0.0, 0.0, 0.0, 0.0, 1.7184676823716466E9, 0.0, 2024-06-15 11:08:02.371
145.0, 77234.68717750159, 62171.10898150313, 73113.47253483206, -187500.02235174447, 107696.42683224998, -187500.02235174447, -163918.66373046205, -187500.02235174447, -0.02, 0.97, 0.202, 192.0, 0.0, 0.0, 0.0, 0.0, 0.0, 0.0, 0.0, 0.0, 0.0, 1.7184676823716555E9, 0.0, 2024-06-15 11:08:02.371
146.0, 77187.23442402297, 60797.81780216906, 72318.2645223456, -187500.02235174447, 107883.0638984518, -187500.02235174447, -164140.34833196978, -187500.02235174447, -0.02, 0.97, 0.202, 192.0, 0.0, 0.0, 0.0, 0.0, 0.0, 0.0, 0.0, 0.0, 0.0, 1.7184676823716643E9, 0.0, 2024-06-15 11:08:02.371
147.0, 77290.83475957332, 61767.32471791801, 72907.76943060989, -187500.02235174447, 107870.23399713445, -187500.02235174447, -164036.9268103751, -187500.02235174447, -0.02, 0.97, 0.202, 192.0, 0.0, 0.0, 0.0, 0.0, 0.0, 0.0, 0.0, 0.0, 0.0, 1.718467682371673E9, 0.0, 2024-06-15 11:08:02.371
148.0, 77326.17286755715, 63197.277569446276, 73782.01321149031, -187500.02235174447, 107715.24700108136, -187500.02235174447, -163789.78357193276, -187500.02235174447, -0.02, 0.97, 0.202, 192.0, 0.0, 0.0, 0.0, 0.0, 0.0, 0.0, 0.0, 0.0, 0.0, 1.7184676823716817E9, 0.0, 2024-06-15 11:08:02.371
149.0, 77240.49863105996, 62458.97709834303, 73298.32146147746, -187500.02235174447, 107691.12946881408, -187500.02235174447, -163844.85827027063, -187500.02235174447, -0.02, 0.97, 0.202, 192.0, 0.0, 0.0, 0.0, 0.0, 0.0, 0.0, 0.0, 0.0, 0.0, 1.7184676823716905E9, 0.0, 2024-06-15 11:08:02.371
150.0, 77181.64648790914, 60907.14018429997, 72370.2323282042, -187500.02235174447, 107832.45954900498, -187500.02235174447, -164099.22112217202, -187500.02235174447, -0.02, 0.97, 0.202, 192.0, 0.0, 0.0, 0.0, 0.0, 0.0, 0.0, 0.0, 0.0, 0.0, 1.7184676823716996E9, 0.0, 2024-06-15 11:08:02.371
151.0, 77249.86401198673, 61442.84444366032, 72724.79805049874, -187500.02235174447, 107915.473927912, -187500.02235174447, -164031.40592949462, -187500.02235174447, -0.026000000000000002, 0.97, 0.212, 192.0, 255.0, 48.0, 30.0, 80.0, 6.0, 160.0, 0.0, 0.0, 0.0, 1.7184676823717086E9, 0.0, 2024-06-15 11:08:02.371
152.0, 77324.60824544528, 63075.19234123139, 73701.63633842902, -187500.02235174447, 107725.70761748643, -187500.02235174447, -163778.6076997051, -187500.02235174447, -0.026000000000000002, 0.97, 0.212, 192.0, 0.0, 0.0, 0.0, 0.0, 0.0, 0.0, 0.0, 0.0, 0.0, 1.7184676823717177E9, 0.0, 2024-06-15 11:08:02.371
153.0, 77273.4451023871, 62717.050339824, 73451.54266971859, -187500.02235174447, 107671.77285811579, -187500.02235174447, -163816.98564493487, -187500.02235174447, -0.026000000000000002, 0.97, 0.212, 192.0, 0.0, 0.0, 0.0, 0.0, 0.0, 0.0, 0.0, 0.0, 0.0, 1.7184676823717265E9, 0.0, 2024-06-15 11:08:02.371
154.0, 77175.85738609522, 61093.95606445743, 72479.17473067937, -187500.02235174447, 107788.13603975011, -187500.02235174447, -164055.79168269536, -187500.02235174447, -0.026000000000000002, 0.97, 0.212, 192.0, 0.0, 0.0, 0.0, 0.0, 0.0, 0.0, 0.0, 0.0, 0.0, 1.718467682371735E9, 0.0, 2024-06-15 11:08:02.371
155.0, 77217.63279648218, 61157.56912917723, 72558.43401651789, -187500.02235174447, 107940.66434391313, -187500.02235174447, -164059.23385134147, -187500.02235174447, -0.026000000000000002, 0.97, 0.212, 192.0, 0.0, 0.0, 0.0, 0.0, 0.0, 0.0, 0.0, 0.0, 0.0, 1.7184676823717597E9, 0.0, 2024-06-15 11:08:02.371
156.0, 77326.77636465745, 62887.63885350691, 73580.31106952562, -187500.02235174447, 107723.47244304091, -187500.02235174447, -163852.16729070753, -187500.02235174447, -0.026000000000000002, 0.97, 0.212, 192.0, 0.0, 0.0, 0.0, 0.0, 0.0, 0.0, 0.0, 0.0, 0.0, 1.7184676823717847E9, 0.0, 2024-06-15 11:08:02.371
157.0, 77279.01068675646, 62930.285981927635, 73607.31197682762, -187500.02235174447, 107681.1158872981, -187500.02235174447, -163792.26461556728, -187500.02235174447, -0.026000000000000002, 0.97, 0.212, 192.0, 0.0, 0.0, 0.0, 0.0, 0.0, 0.0, 0.0, 0.0, 0.0, 1.7184676823717935E9, 0.0, 2024-06-15 11:08:02.371
158.0, 77193.85054038174, 61341.85926221124, 72621.13065971503, -187500.02235174447, 107741.42089383851, -187500.02235174447, -164029.5283829604, -187500.02235174447, -0.026000000000000002, 0.97, 0.212, 192.0, 0.0, 0.0, 0.0, 0.0, 0.0, 0.0, 0.0, 0.0, 0.0, 1.7184676823718023E9, 0.0, 2024-06-15 11:08:02.371
159.0, 77218.72803196049, 60949.697905742876, 72438.18163134833, -187500.02235174447, 107948.3756957502, -187500.02235174447, -164101.3892413842, -187500.02235174447, -0.026000000000000002, 0.97, 0.212, 192.0, 0.0, 0.0, 0.0, 0.0, 0.0, 0.0, 0.0, 0.0, 0.0, 1.718467682371832E9, 0.0, 2024-06-15 11:08:02.371
160.0, 77324.78705940093, 62648.34107736839, 73439.04804456807, -187500.02235174447, 107775.66376634405, -187500.02235174447, -163880.91163407703, -187500.02235174447, -0.026000000000000002, 0.97, 0.212, 192.0, 0.0, 0.0, 0.0, 0.0, 0.0, 0.0, 0.0, 0.0, 0.0, 1.718467682371841E9, 0.0, 2024-06-15 11:08:02.371
161.0, 77295.77449509794, 63098.5946176761, 73712.38752751202, -187500.02235174447, 107704.87579165409, -187500.02235174447, -163767.83415887764, -187500.02235174447, -0.026000000000000002, 0.97, 0.212, 192.0, 0.0, 0.0, 0.0, 0.0, 0.0, 0.0, 0.0, 0.0, 0.0, 1.718467682371866E9, 0.0, 2024-06-15 11:08:02.371
162.0, 77198.70086892854, 61634.8459285314, 72795.40721123305, -187500.02235174447, 107718.80092844975, -187500.02235174447, -163988.78115281835, -187500.02235174447, -0.022, 0.97, 0.202, 192.0, 255.0, 80.0, 30.0, 80.0, 6.0, 80.0, 0.0, 0.0, 0.0, 1.7184676823718913E9, 0.0, 2024-06-15 11:08:02.371
163.0, 77186.34035424476, 60809.82068894157, 72357.13420595339, -187500.02235174447, 107941.15608229114, -187500.02235174447, -164114.0403287459, -187500.02235174447, -0.022, 0.97, 0.202, 192.0, 0.0, 0.0, 0.0, 0.0, 0.0, 0.0, 0.0, 0.0, 0.0, 1.7184676823719003E9, 0.0, 2024-06-15 11:08:02.371
164.0, 77309.43141096013, 62341.20575680802, 73260.54701334798, -187500.02235174447, 107799.46837418895, -187500.02235174447, -163927.60442824417, -187500.02235174447, -0.022, 0.97, 0.202, 192.0, 0.0, 0.0, 0.0, 0.0, 0.0, 0.0, 0.0, 0.0, 0.0, 1.7184676823719096E9, 0.0, 2024-06-15 11:08:02.371
165.0, 77312.53830343942, 63187.88983677505, 73779.84509227813, -187500.02235174447, 107695.08572758267, -187500.02235174447, -163762.8050163752, -187500.02235174447, -0.022, 0.97, 0.202, 192.0, 0.0, 0.0, 0.0, 0.0, 0.0, 0.0, 0.0, 0.0, 0.0, 1.718467682371919E9, 0.0, 2024-06-15 11:08:02.371
166.0, 77204.89230214266, 61928.34668497404, 72979.8761582227, -187500.02235174447, 107696.2703700388, -187500.02235174447, -163913.67929144853, -187500.02235174447, -0.022, 0.97, 0.202, 192.0, 0.0, 0.0, 0.0, 0.0, 0.0, 0.0, 0.0, 0.0, 0.0, 1.7184676823719437E9, 0.0, 2024-06-15 11:08:02.371
167.0, 77169.57654590327, 60754.81304583706, 72313.25773158763, -187500.02235174447, 107906.71204408552, -187500.02235174447, -164093.81200001383, -187500.02235174447, -0.022, 0.97, 0.202, 192.0, 0.0, 0.0, 0.0, 0.0, 0.0, 0.0, 0.0, 0.0, 0.0, 1.7184676823719523E9, 0.0, 2024-06-15 11:08:02.371
168.0, 77282.38580016921, 62000.98985445379, 73055.13448180372, -187500.02235174447, 107831.25255480439, -187500.02235174447, -163952.01253318938, -187500.02235174447, -0.022, 0.97, 0.202, 192.0, 0.0, 0.0, 0.0, 0.0, 0.0, 0.0, 0.0, 0.0, 0.0, 1.7184676823719616E9, 0.0, 2024-06-15 11:08:02.371
169.0, 77309.83374236032, 63205.100680005635, 73788.98695576035, -187500.02235174447, 107690.30245426923, -187500.02235174447, -163747.11409176758, -187500.02235174447, -0.022, 0.97, 0.202, 192.0, 0.0, 0.0, 0.0, 0.0, 0.0, 0.0, 0.0, 0.0, 0.0, 1.718467682371986E9, 0.0, 2024-06-15 11:08:02.371
170.0, 77221.11966861722, 62224.84257517369, 73155.4714626636, -187500.02235174447, 107666.22962549087, -187500.02235174447, -163871.2780322168, -187500.02235174447, -0.022, 0.97, 0.202, 192.0, 0.0, 0.0, 0.0, 0.0, 0.0, 0.0, 0.0, 0.0, 0.0, 1.7184676823719947E9, 0.0, 2024-06-15 11:08:02.371
171.0, 77166.33554295725, 60798.823630669554, 72323.94186543726, -187500.02235174447, 107845.58002300025, -187500.02235174447, -164100.8304477728, -187500.02235174447, -0.022, 0.97, 0.202, 192.0, 0.0, 0.0, 0.0, 0.0, 0.0, 0.0, 0.0, 0.0, 0.0, 1.7184676823720033E9, 0.0, 2024-06-15 11:08:02.372
172.0, 77265.0408464719, 61663.947899812214, 72843.03877866731, -187500.02235174447, 107841.1543775981, -187500.02235174447, -164022.33112124578, -187500.02235174447, -0.022, 0.966, 0.2, 192.0, 255.0, 80.0, 30.0, 48.0, 6.0, 64.0, 0.0, 0.0, 0.0, 1.718467682372012E9, 0.0, 2024-06-15 11:08:02.372
173.0, 77327.4022135022, 63155.479807314856, 73737.60029525761, -187500.02235174447, 107651.87980555056, -187500.02235174447, -163820.83014498118, -187500.02235174447, -0.022, 0.966, 0.2, 192.0, 0.0, 0.0, 0.0, 0.0, 0.0, 0.0, 0.0, 0.0, 0.0, 1.7184676823720207E9, 0.0, 2024-06-15 11:08:02.372
174.0, 77244.61135203975, 62514.63294203675, 73328.94335138123, -187500.02235174447, 107634.4007413865, -187500.02235174447, -163864.46075015794, -187500.02235174447, -0.022, 0.966, 0.2, 192.0, 0.0, 0.0, 0.0, 0.0, 0.0, 0.0, 0.0, 0.0, 0.0, 1.7184676823720293E9, 0.0, 2024-06-15 11:08:02.372
175.0, 77176.57264191778, 60936.264507325235, 72387.64433713489, -187500.02235174447, 107765.3372604057, -187500.02235174447, -164125.66323586265, -187500.02235174447, -0.022, 0.966, 0.2, 192.0, 0.0, 0.0, 0.0, 0.0, 0.0, 0.0, 0.0, 0.0, 0.0, 1.718467682372038E9, 0.0, 2024-06-15 11:08:02.372
176.0, 77225.99234890848, 61351.09053267128, 72680.78746566623, -187500.02235174447, 107876.9618722155, -187500.02235174447, -164056.90926991813, -187500.02235174447, -0.022, 0.966, 0.2, 192.0, 0.0, 0.0, 0.0, 0.0, 0.0, 0.0, 0.0, 0.0, 0.0, 1.7184676823720467E9, 0.0, 2024-06-15 11:08:02.372
177.0, 77307.62091965925, 63015.11085213553, 73667.4381694124, -187500.02235174447, 107682.05466056522, -187500.02235174447, -163802.38995580556, -187500.02235174447, -0.022, 0.966, 0.2, 192.0, 0.0, 0.0, 0.0, 0.0, 0.0, 0.0, 0.0, 0.0, 0.0, 1.7184676823720553E9, 0.0, 2024-06-15 11:08:02.372
178.0, 77250.24399164248, 62748.34278206144, 73479.43764679882, -187500.02235174447, 107633.5513750972, -187500.02235174447, -163809.02842390878, -187500.02235174447, -0.022, 0.966, 0.2, 192.0, 0.0, 0.0, 0.0, 0.0, 0.0, 0.0, 0.0, 0.0, 0.0, 1.7184676823720636E9, 0.0, 2024-06-15 11:08:02.372
179.0, 77157.77482483088, 61122.58864910468, 72504.07457400257, -187500.02235174447, 107739.78921649329, -187500.02235174447, -164036.18920280805, -187500.02235174447, -0.022, 0.966, 0.2, 192.0, 0.0, 0.0, 0.0, 0.0, 0.0, 0.0, 0.0, 0.0, 0.0, 1.7184676823720722E9, 0.0, 2024-06-15 11:08:02.372
180.0, 77207.48510449947, 61073.638328747555, 72518.53615266517, -187500.02235174447, 107903.69455858404, -187500.02235174447, -164058.94327866356, -187500.02235174447, -0.022, 0.966, 0.2, 192.0, 0.0, 0.0, 0.0, 0.0, 0.0, 0.0, 0.0, 0.0, 0.0, 1.7184676823720808E9, 0.0, 2024-06-15 11:08:02.372
181.0, 77317.05335581939, 62807.48549789018, 73532.83596430255, -187500.02235174447, 107691.01771009181, -187500.02235174447, -163849.70859881744, -187500.02235174447, -0.022, 0.966, 0.2, 192.0, 0.0, 0.0, 0.0, 0.0, 0.0, 0.0, 0.0, 0.0, 0.0, 1.7184676823720891E9, 0.0, 2024-06-15 11:08:02.372
182.0, 77272.75219830897, 62956.10224677352, 73621.63944502348, -187500.02235174447, 107640.32395366716, -187500.02235174447, -163786.74373468684, -187500.02235174447, -0.024, 0.968, 0.196, 192.0, 255.0, 64.0, 30.0, 64.0, 6.0, 32.0, 0.0, 0.0, 0.0, 1.7184676823720975E9, 0.0, 2024-06-15 11:08:02.372
183.0, 77175.90208958412, 61392.508315146966, 72654.36770372007, -187500.02235174447, 107694.39282350456, -187500.02235174447, -164009.92590307308, -187500.02235174447, -0.024, 0.968, 0.196, 192.0, 0.0, 0.0, 0.0, 0.0, 0.0, 0.0, 0.0, 0.0, 0.0, 1.7184676823721068E9, 0.0, 2024-06-15 11:08:02.372
184.0, 77190.92246185809, 60894.08676553807, 72414.10880256997, -187500.02235174447, 107913.93165754458, -187500.02235174447, -164081.16091265212, -187500.02235174447, -0.024, 0.968, 0.196, 192.0, 0.0, 0.0, 0.0, 0.0, 0.0, 0.0, 0.0, 0.0, 0.0, 1.7184676823721156E9, 0.0, 2024-06-15 11:08:02.372
185.0, 77300.31189922236, 62551.89330004374, 73389.24835792165, -187500.02235174447, 107738.89514671508, -187500.02235174447, -163859.23044195538, -187500.02235174447, -0.024, 0.968, 0.196, 192.0, 0.0, 0.0, 0.0, 0.0, 0.0, 0.0, 0.0, 0.0, 0.0, 1.718467682372124E9, 0.0, 2024-06-15 11:08:02.372
186.0, 77268.66182907365, 63091.218542005845, 73717.28255954773, -187500.02235174447, 107655.52313989677, -187500.02235174447, -163729.8361933036, -187500.02235174447, -0.024, 0.968, 0.196, 192.0, 0.0, 0.0, 0.0, 0.0, 0.0, 0.0, 0.0, 0.0, 0.0, 1.7184676823721328E9, 0.0, 2024-06-15 11:08:02.372
187.0, 77174.5162814279, 61677.49305695213, 72825.13503135862, -187500.02235174447, 107673.58334941666, -187500.02235174447, -163924.36342529816, -187500.02235174447, -0.024, 0.968, 0.196, 192.0, 0.0, 0.0, 0.0, 0.0, 0.0, 0.0, 0.0, 0.0, 0.0, 1.7184676823721411E9, 0.0, 2024-06-15 11:08:02.372
188.0, 77159.85353706522, 60758.7916563501, 72321.66198750281, -187500.02235174447, 107890.52938109987, -187500.02235174447, -164073.11428464824, -187500.02235174447, -0.024, 0.968, 0.196, 192.0, 0.0, 0.0, 0.0, 0.0, 0.0, 0.0, 0.0, 0.0, 0.0, 1.7184676823721497E9, 0.0, 2024-06-15 11:08:02.372
189.0, 77285.24682345949, 62229.64820023158, 73179.29842225295, -187500.02235174447, 107741.80087349426, -187500.02235174447, -163928.43144278903, -187500.02235174447, -0.024, 0.968, 0.196, 192.0, 0.0, 0.0, 0.0, 0.0, 0.0, 0.0, 0.0, 0.0, 0.0, 1.7184676823721583E9, 0.0, 2024-06-15 11:08:02.372
190.0, 77287.50434964948, 63170.58958656664, 73767.30576363871, -187500.02235174447, 107639.6086978446, -187500.02235174447, -163739.38038818602, -187500.02235174447, -0.024, 0.968, 0.196, 192.0, 0.0, 0.0, 0.0, 0.0, 0.0, 0.0, 0.0, 0.0, 0.0, 1.718467682372167E9, 0.0, 2024-06-15 11:08:02.372
191.0, 77200.57841546279, 61976.939377419876, 73003.2337311785, -187500.02235174447, 107618.50865107878, -187500.02235174447, -163911.66763444754, -187500.02235174447, -0.024, 0.968, 0.196, 192.0, 0.0, 0.0, 0.0, 0.0, 0.0, 0.0, 0.0, 0.0, 0.0, 1.7184676823721757E9, 0.0, 2024-06-15 11:08:02.372
192.0, 77160.99347603244, 60742.72075208673, 72312.09544087594, -187500.02235174447, 107835.74525543992, -187500.02235174447, -164103.17738094061, -187500.02235174447, -0.024, 0.972, 0.198, 192.0, 255.0, 64.0, 30.0, 96.0, 6.0, 48.0, 0.0, 0.0, 0.0, 1.718467682372184E9, 0.0, 2024-06-15 11:08:02.372
193.0, 77260.8387185143, 61899.93761777135, 73003.09962071176, -187500.02235174447, 107787.51019090536, -187500.02235174447, -163958.8968704816, -187500.02235174447, -0.024, 0.972, 0.198, 192.0, 0.0, 0.0, 0.0, 0.0, 0.0, 0.0, 0.0, 0.0, 0.0, 1.718467682372193E9, 0.0, 2024-06-15 11:08:02.372
194.0, 77293.7404863525, 63169.91903423298, 73770.166786929, -187500.02235174447, 107631.6067733296, -187500.02235174447, -163741.5485073982, -187500.02235174447, -0.024, 0.972, 0.198, 192.0, 0.0, 0.0, 0.0, 0.0, 0.0, 0.0, 0.0, 0.0, 0.0, 1.7184676823722017E9, 0.0, 2024-06-15 11:08:02.372
195.0, 77217.47633427099, 62264.31575588176, 73188.01560259052, -187500.02235174447, 107599.82259271415, -187500.02235174447, -163856.30236343175, -187500.02235174447, -0.024, 0.972, 0.198, 192.0, 0.0, 0.0, 0.0, 0.0, 0.0, 0.0, 0.0, 0.0, 0.0, 1.7184676823722105E9, 0.0, 2024-06-15 11:08:02.372
196.0, 77158.89241205364, 60787.93833111982, 72329.93213295127, -187500.02235174447, 107775.8425802997, -187500.02235174447, -164089.56516856732, -187500.02235174447, -0.024, 0.972, 0.198, 192.0, 0.0, 0.0, 0.0, 0.0, 0.0, 0.0, 0.0, 0.0, 0.0, 1.7184676823722396E9, 0.0, 2024-06-15 11:08:02.372
197.0, 77254.3343608778, 61549.50696820104, 72798.96113860144, -187500.02235174447, 107797.97080731044, -187500.02235174447, -164021.68292065657, -187500.02235174447, -0.024, 0.972, 0.198, 192.0, 0.0, 0.0, 0.0, 0.0, 0.0, 0.0, 0.0, 0.0, 0.0, 1.7184676823722508E9, 0.0, 2024-06-15 11:08:02.372
198.0, 77334.13008858325, 63094.236027507315, 73721.88701890553, -187500.02235174447, 107593.69821473339, -187500.02235174447, -163827.1780404065, -187500.02235174447, -0.024, 0.972, 0.198, 192.0, 0.0, 0.0, 0.0, 0.0, 0.0, 0.0, 0.0, 0.0, 0.0, 1.7184676823722763E9, 0.0, 2024-06-15 11:08:02.372
199.0, 77242.21971538302, 62539.37632314877, 73378.74303802765, -187500.02235174447, 107580.93536864941, -187500.02235174447, -163855.09536923116, -187500.02235174447, -0.024, 0.972, 0.198, 192.0, 0.0, 0.0, 0.0, 0.0, 0.0, 0.0, 0.0, 0.0, 0.0, 1.7184676823722858E9, 0.0, 2024-06-15 11:08:02.372
200.0, 77159.94294404304, 60937.96323990384, 72416.1428113154, -187500.02235174447, 107719.29266682777, -187500.02235174447, -164089.16283716712, -187500.02235174447, -0.024, 0.972, 0.198, 192.0, 0.0, 0.0, 0.0, 0.0, 0.0, 0.0, 0.0, 0.0, 0.0, 1.718467682372311E9, 0.0, 2024-06-15 11:08:02.372
201.0, 77243.47141307252, 61256.877929792165, 72634.0946714991, -187500.02235174447, 107823.58590645622, -187500.02235174447, -164079.7751044959, -187500.02235174447, -0.024, 0.972, 0.198, 192.0, 0.0, 0.0, 0.0, 0.0, 0.0, 0.0, 0.0, 0.0, 0.0, 1.71846768237232E9, 0.0, 2024-06-15 11:08:02.372
202.0, 77331.6490449487, 62956.437522940345, 73646.56164009114, -187500.02235174447, 107620.38619761303, -187500.02235174447, -163848.34514240565, -187500.02235174447, -0.024, 0.972, 0.198, 192.0, 0.0, 0.0, 0.0, 0.0, 0.0, 0.0, 0.0, 0.0, 0.0, 1.7184676823723292E9, 0.0, 2024-06-15 11:08:02.372
203.0, 77270.2935064189, 62784.97729122369, 73535.02643525916, -187500.02235174447, 107588.08792687512, -187500.02235174447, -163820.24899962533, -187500.02235174447, -0.028, 0.966, 0.198, 192.0, 255.0, 32.0, 30.0, 48.0, 6.0, 48.0, 0.0, 0.0, 0.0, 1.7184676823723385E9, 0.0, 2024-06-15 11:08:02.372
204.0, 77176.39382796215, 61170.53314096131, 72546.78875765667, -187500.02235174447, 107680.82531462018, -187500.02235174447, -164050.89665065965, -187500.02235174447, -0.028, 0.966, 0.198, 192.0, 0.0, 0.0, 0.0, 0.0, 0.0, 0.0, 0.0, 0.0, 0.0, 1.7184676823723693E9, 0.0, 2024-06-15 11:08:02.372
205.0, 77229.76979372143, 61021.87168858906, 72496.18440820985, -187500.02235174447, 107847.99401140142, -187500.02235174447, -164109.4358693881, -187500.02235174447, -0.028, 0.966, 0.198, 192.0, 0.0, 0.0, 0.0, 0.0, 0.0, 0.0, 0.0, 0.0, 0.0, 1.7184676823723803E9, 0.0, 2024-06-15 11:08:02.372
206.0, 77339.47215550806, 62757.23877635465, 73524.6999293208, -187500.02235174447, 107650.82927356116, -187500.02235174447, -163889.07002080322, -187500.02235174447, -0.028, 0.966, 0.198, 192.0, 0.0, 0.0, 0.0, 0.0, 0.0, 0.0, 0.0, 0.0, 0.0, 1.718467682372429E9, 0.0, 2024-06-15 11:08:02.372
207.0, 77291.01357352897, 62989.20518031182, 73668.0863700016, -187500.02235174447, 107604.73997649431, -187500.02235174447, -163796.64555748054, -187500.02235174447, -0.028, 0.966, 0.198, 192.0, 0.0, 0.0, 0.0, 0.0, 0.0, 0.0, 0.0, 0.0, 0.0, 1.718467682372445E9, 0.0, 2024-06-15 11:08:02.372
208.0, 77186.89914785614, 61440.653972703694, 72712.14696313703, -187500.02235174447, 107662.47453242238, -187500.02235174447, -163997.8112575783, -187500.02235174447, -0.028, 0.966, 0.198, 192.0, 0.0, 0.0, 0.0, 0.0, 0.0, 0.0, 0.0, 0.0, 0.0, 1.7184676823724637E9, 0.0, 2024-06-15 11:08:02.372
209.0, 77203.73001143099, 60831.63599152995, 72396.9426628283, -187500.02235174447, 107874.2126076475, -187500.02235174447, -164102.26095941794, -187500.02235174447, -0.028, 0.966, 0.198, 192.0, 0.0, 0.0, 0.0, 0.0, 0.0, 0.0, 0.0, 0.0, 0.0, 1.7184676823724797E9, 0.0, 2024-06-15 11:08:02.372
210.0, 77330.46440249258, 62460.02763033243, 73351.9656481702, -187500.02235174447, 107697.14208807255, -187500.02235174447, -163919.11076535116, -187500.02235174447, -0.028, 0.966, 0.198, 192.0, 0.0, 0.0, 0.0, 0.0, 0.0, 0.0, 0.0, 0.0, 0.0, 1.718467682372522E9, 0.0, 2024-06-15 11:08:02.372
211.0, 77302.36825971225, 63099.82396362114, 73747.70328375141, -187500.02235174447, 107618.7545202678, -187500.02235174447, -163767.11890305506, -187500.02235174447, -0.028, 0.966, 0.198, 192.0, 0.0, 0.0, 0.0, 0.0, 0.0, 0.0, 0.0, 0.0, 0.0, 1.718467682372538E9, 0.0, 2024-06-15 11:08:02.372
212.0, 77202.45596199704, 61725.03521740857, 72860.33902887572, -187500.02235174447, 107606.50576430629, -187500.02235174447, -163979.9075102696, -187500.02235174447, -0.028, 0.966, 0.198, 192.0, 0.0, 0.0, 0.0, 0.0, 0.0, 0.0, 0.0, 0.0, 0.0, 1.718467682372556E9, 0.0, 2024-06-15 11:08:02.372
213.0, 77179.52307218588, 60734.04827523808, 72312.07308913149, -187500.02235174447, 107819.11555756516, -187500.02235174447, -164155.12283505476, -187500.02235174447, -0.024, 0.966, 0.198, 192.0, 255.0, 64.0, 30.0, 48.0, 6.0, 48.0, 0.0, 0.0, 0.0, 1.7184676823725858E9, 0.0, 2024-06-15 11:08:02.372
214.0, 77297.40617244318, 62148.556071347724, 73139.04293048894, -187500.02235174447, 107698.93022762898, -187500.02235174447, -164003.7121181145, -187500.02235174447, -0.024, 0.966, 0.198, 192.0, 0.0, 0.0, 0.0, 0.0, 0.0, 0.0, 0.0, 0.0, 0.0, 1.7184676823725994E9, 0.0, 2024-06-15 11:08:02.372
215.0, 77312.31478599487, 63179.84320877114, 73769.33977238415, -187500.02235174447, 107571.70409818937, -187500.02235174447, -163826.90981947302, -187500.02235174447, -0.024, 0.966, 0.198, 192.0, 0.0, 0.0, 0.0, 0.0, 0.0, 0.0, 0.0, 0.0, 0.0, 1.718467682372636E9, 0.0, 2024-06-15 11:08:02.372
216.0, 77214.74942144746, 62053.985840557325, 73050.26180151246, -187500.02235174447, 107560.97526085083, -187500.02235174447, -163968.0610857083, -187500.02235174447, -0.024, 0.966, 0.198, 192.0, 0.0, 0.0, 0.0, 0.0, 0.0, 0.0, 0.0, 0.0, 0.0, 1.71846768237265E9, 0.0, 2024-06-15 11:08:02.372
217.0, 77169.9118220701, 60746.83347306651, 72306.93218790677, -187500.02235174447, 107768.3323941627, -187500.02235174447, -164168.06449509438, -187500.02235174447, -0.024, 0.966, 0.198, 192.0, 0.0, 0.0, 0.0, 0.0, 0.0, 0.0, 0.0, 0.0, 0.0, 1.7184676823726637E9, 0.0, 2024-06-15 11:08:02.372
218.0, 77271.76872155294, 61809.45775621626, 72943.59927697174, -187500.02235174447, 107732.56960303422, -187500.02235174447, -164045.30871454583, -187500.02235174447, -0.024, 0.966, 0.198, 192.0, 0.0, 0.0, 0.0, 0.0, 0.0, 0.0, 0.0, 0.0, 0.0, 1.7184676823726776E9, 0.0, 2024-06-15 11:08:02.372
219.0, 77319.51204770948, 63159.4584178279, 73753.85001347662, -187500.02235174447, 107565.26679578624, -187500.02235174447, -163841.01377022432, -187500.02235174447, -0.024, 0.966, 0.198, 192.0, 0.0, 0.0, 0.0, 0.0, 0.0, 0.0, 0.0, 0.0, 0.0, 1.718467682372692E9, 0.0, 2024-06-15 11:08:02.372
220.0, 77237.4811455585, 62335.17078580509, 73224.24778035257, -187500.02235174447, 107534.19787099336, -187500.02235174447, -163946.2457831199, -187500.02235174447, -0.024, 0.966, 0.198, 192.0, 0.0, 0.0, 0.0, 0.0, 0.0, 0.0, 0.0, 0.0, 0.0, 1.718467682372706E9, 0.0, 2024-06-15 11:08:02.372
221.0, 77159.85353706522, 60817.621447756464, 72342.31499937952, -187500.02235174447, 107718.89033542757, -187500.02235174447, -164165.56109971539, -187500.02235174447, -0.024, 0.966, 0.198, 192.0, 0.0, 0.0, 0.0, 0.0, 0.0, 0.0, 0.0, 0.0, 0.0, 1.71846768237272E9, 0.0, 2024-06-15 11:08:02.372
222.0, 77242.89026771668, 61467.87839745026, 72739.01375997231, -187500.02235174447, 107769.11470521864, -187500.02235174447, -164105.65842457514, -187500.02235174447, -0.024, 0.966, 0.198, 192.0, 0.0, 0.0, 0.0, 0.0, 0.0, 0.0, 0.0, 0.0, 0.0, 1.718467682372734E9, 0.0, 2024-06-15 11:08:02.372
223.0, 77311.53247493893, 63059.210843945846, 73692.98621332481, -187500.02235174447, 107583.10348786158, -187500.02235174447, -163879.45877068746, -187500.02235174447, -0.016, 0.968, 0.2, 192.0, 255.0, 128.0, 30.0, 64.0, 6.0, 64.0, 0.0, 0.0, 0.0, 1.7184676823727484E9, 0.0, 2024-06-15 11:08:02.372
224.0, 77231.7814507224, 62587.47727721659, 73396.825599292, -187500.02235174447, 107569.51362723275, -187500.02235174447, -163884.64437540108, -187500.02235174447, -0.016, 0.968, 0.2, 192.0, 0.0, 0.0, 0.0, 0.0, 0.0, 0.0, 0.0, 0.0, 0.0, 1.7184676823727636E9, 0.0, 2024-06-15 11:08:02.372
225.0, 77156.72429284148, 60971.64731879799, 72427.96688413226, -187500.02235174447, 107705.43458526548, -187500.02235174447, -164118.22010495904, -187500.02235174447, -0.016, 0.968, 0.2, 192.0, 0.0, 0.0, 0.0, 0.0, 0.0, 0.0, 0.0, 0.0, 0.0, 1.7184676823727777E9, 0.0, 2024-06-15 11:08:02.372
226.0, 77235.84946821326, 61174.75762066336, 72575.80132195966, -187500.02235174447, 107828.81621465877, -187500.02235174447, -164137.0402737904, -187500.02235174447, -0.016, 0.968, 0.2, 192.0, 0.0, 0.0, 0.0, 0.0, 0.0, 0.0, 0.0, 0.0, 0.0, 1.718467682372793E9, 0.0, 2024-06-15 11:08:02.372
227.0, 77329.92796062565, 62894.92552219934, 73614.01750016422, -187500.02235174447, 107649.44346540493, -187500.02235174447, -163896.87077961813, -187500.02235174447, -0.016, 0.968, 0.2, 192.0, 0.0, 0.0, 0.0, 0.0, 0.0, 0.0, 0.0, 0.0, 0.0, 1.7184676823728218E9, 0.0, 2024-06-15 11:08:02.372
228.0, 77264.37029413824, 62808.75954732413, 73558.24989774823, -187500.02235174447, 107628.56693608368, -187500.02235174447, -163837.81747076722, -187500.02235174447, -0.016, 0.968, 0.2, 192.0, 0.0, 0.0, 0.0, 0.0, 0.0, 0.0, 0.0, 0.0, 0.0, 1.7184676823728356E9, 0.0, 2024-06-15 11:08:02.372
229.0, 77166.13437725716, 61194.67302497304, 72562.61379273103, -187500.02235174447, 107706.90980039953, -187500.02235174447, -164074.969479438, -187500.02235174447, -0.016, 0.968, 0.2, 192.0, 0.0, 0.0, 0.0, 0.0, 0.0, 0.0, 0.0, 0.0, 0.0, 1.71846768237285E9, 0.0, 2024-06-15 11:08:02.372
230.0, 77194.47638922649, 60918.76309141673, 72445.78122446314, -187500.02235174447, 107910.28832319836, -187500.02235174447, -164111.1346019667, -187500.02235174447, -0.016, 0.968, 0.2, 192.0, 0.0, 0.0, 0.0, 0.0, 0.0, 0.0, 0.0, 0.0, 0.0, 1.718467682372864E9, 0.0, 2024-06-15 11:08:02.372
231.0, 77312.0465650614, 62633.47716730562, 73453.82254765304, -187500.02235174447, 107720.29849532826, -187500.02235174447, -163910.34888152467, -187500.02235174447, -0.016, 0.968, 0.2, 192.0, 0.0, 0.0, 0.0, 0.0, 0.0, 0.0, 0.0, 0.0, 0.0, 1.718467682372884E9, 0.0, 2024-06-15 11:08:02.372
232.0, 77266.71722730604, 62961.42196195388, 73671.4391316699, -187500.02235174447, 107686.90498911202, -187500.02235174447, -163796.46674352488, -187500.02235174447, -0.016, 0.968, 0.2, 192.0, 0.0, 0.0, 0.0, 0.0, 0.0, 0.0, 0.0, 0.0, 0.0, 1.718467682372897E9, 0.0, 2024-06-15 11:08:02.372
233.0, 77186.1168368002, 61462.5586822699, 72722.24995163083, -187500.02235174447, 107710.73194870139, -187500.02235174447, -164031.00359809442, -187500.02235174447, -0.022, 0.972, 0.196, 192.0, 255.0, 80.0, 30.0, 96.0, 6.0, 32.0, 0.0, 0.0, 0.0, 1.718467682372933E9, 0.0, 2024-06-15 11:08:02.372
234.0, 77190.3189647578, 60766.83828435401, 72361.55985135555, -187500.02235174447, 107939.99379157947, -187500.02235174447, -164150.22780301902, -187500.02235174447, -0.022, 0.972, 0.196, 192.0, 0.0, 0.0, 0.0, 0.0, 0.0, 0.0, 0.0, 0.0, 0.0, 1.7184676823729465E9, 0.0, 2024-06-15 11:08:02.372
235.0, 77302.25650098998, 62358.03662038287, 73303.12708653534, -187500.02235174447, 107797.63553114362, -187500.02235174447, -163956.21466114698, -187500.02235174447, -0.022, 0.972, 0.196, 192.0, 0.0, 0.0, 0.0, 0.0, 0.0, 0.0, 0.0, 0.0, 0.0, 1.7184676823729608E9, 0.0, 2024-06-15 11:08:02.372
236.0, 77305.45280044709, 63098.72872814283, 73757.51569956729, -187500.02235174447, 107720.79023370627, -187500.02235174447, -163801.47353428288, -187500.02235174447, -0.022, 0.972, 0.196, 192.0, 0.0, 0.0, 0.0, 0.0, 0.0, 0.0, 0.0, 0.0, 0.0, 1.7184676823729897E9, 0.0, 2024-06-15 11:08:02.372
237.0, 77217.29752031536, 61787.95537805026, 72921.38164298316, -187500.02235174447, 107726.06524539772, -187500.02235174447, -163989.58581561875, -187500.02235174447, -0.022, 0.972, 0.196, 192.0, 0.0, 0.0, 0.0, 0.0, 0.0, 0.0, 0.0, 0.0, 0.0, 1.718467682373026E9, 0.0, 2024-06-15 11:08:02.373
238.0, 77174.20335700552, 60712.50119358316, 72333.70957776422, -187500.02235174447, 107974.43782978509, -187500.02235174447, -164124.21037247306, -187500.02235174447, -0.022, 0.972, 0.196, 192.0, 0.0, 0.0, 0.0, 0.0, 0.0, 0.0, 0.0, 0.0, 0.0, 1.7184676823730433E9, 0.0, 2024-06-15 11:08:02.373
239.0, 77293.22639623003, 62044.35223869709, 73120.91566573568, -187500.02235174447, 107889.27768341037, -187500.02235174447, -163974.76660904486, -187500.02235174447, -0.022, 0.972, 0.196, 192.0, 0.0, 0.0, 0.0, 0.0, 0.0, 0.0, 0.0, 0.0, 0.0, 1.7184676823730972E9, 0.0, 2024-06-15 11:08:02.373
240.0, 77298.83668408831, 63147.20966186639, 73807.20362749143, -187500.02235174447, 107795.60152239818, -187500.02235174447, -163746.33178071163, -187500.02235174447, -0.022, 0.972, 0.196, 192.0, 0.0, 0.0, 0.0, 0.0, 0.0, 0.0, 0.0, 0.0, 0.0, 1.7184676823731153E9, 0.0, 2024-06-15 11:08:02.373
241.0, 77213.09539235776, 62085.34533802812, 73109.94095920814, -187500.02235174447, 107787.17491473853, -187500.02235174447, -163876.06130553022, -187500.02235174447, -0.022, 0.972, 0.196, 192.0, 0.0, 0.0, 0.0, 0.0, 0.0, 0.0, 0.0, 0.0, 0.0, 1.718467682850603E9, 0.0, 2024-06-15 11:08:02.850
242.0, 77170.15769125911, 60729.71203681375, 72321.25965610261, -187500.02235174447, 107983.46793454504, -187500.02235174447, -164089.989851712, -187500.02235174447, -0.022, 0.972, 0.196, 192.0, 0.0, 0.0, 0.0, 0.0, 0.0, 0.0, 0.0, 0.0, 0.0, 1.7184676828508072E9, 0.0, 2024-06-15 11:08:02.850
243.0, 77270.15939595216, 61715.133394614866, 72914.58671266875, -187500.02235174447, 107972.06854487283, -187500.02235174447, -163983.66260333807, -187500.02235174447, -0.022, 0.972, 0.196, 192.0, 0.0, 0.0, 0.0, 0.0, 0.0, 0.0, 0.0, 0.0, 0.0, 1.7184676828508348E9, 0.0, 2024-06-15 11:08:02.850
244.0, 77306.39157371421, 63130.17763259145, 73772.58077533016, -187500.02235174447, 107823.87647913415, -187500.02235174447, -163737.97222828536, -187500.02235174447, -0.02, 0.968, 0.19, 192.0, 255.0, 96.0, 30.0, 64.0, 5.0, 240.0, 0.0, 0.0, 0.0, 1.718467682850855E9, 0.0, 2024-06-15 11:08:02.850
245.0, 77224.85240994125, 62380.723641005, 73282.63053686984, -187500.02235174447, 107798.99898755539, -187500.02235174447, -163802.7028802279, -187500.02235174447, -0.02, 0.968, 0.19, 192.0, 0.0, 0.0, 0.0, 0.0, 0.0, 0.0, 0.0, 0.0, 0.0, 1.7184676828508787E9, 0.0, 2024-06-15 11:08:02.850
246.0, 77148.47649913747, 60824.7069507488, 72368.08656073648, -187500.02235174447, 107962.70316394606, -187500.02235174447, -164015.469135698, -187500.02235174447, -0.02, 0.968, 0.19, 192.0, 0.0, 0.0, 0.0, 0.0, 0.0, 0.0, 0.0, 0.0, 0.0, 1.718467682850896E9, 0.0, 2024-06-15 11:08:02.850
247.0, 77240.90096246016, 61377.532646361906, 72711.40935557001, -187500.02235174447, 108028.03731298892, -187500.02235174447, -163965.66944905155, -187500.02235174447, -0.02, 0.968, 0.19, 192.0, 0.0, 0.0, 0.0, 0.0, 0.0, 0.0, 0.0, 0.0, 0.0, 1.7184676828509128E9, 0.0, 2024-06-15 11:08:02.850
248.0, 77329.07859433634, 63019.201221370844, 73691.4886464463, -187500.02235174447, 107830.71611293747, -187500.02235174447, -163749.57278365767, -187500.02235174447, -0.02, 0.968, 0.19, 192.0, 0.0, 0.0, 0.0, 0.0, 0.0, 0.0, 0.0, 0.0, 0.0, 1.718467682850932E9, 0.0, 2024-06-15 11:08:02.850
249.0, 77249.97577070902, 62643.13312091031, 73450.49213772919, -187500.02235174447, 107799.31191197777, -187500.02235174447, -163757.5970599171, -187500.02235174447, -0.02, 0.968, 0.19, 192.0, 0.0, 0.0, 0.0, 0.0, 0.0, 0.0, 0.0, 0.0, 0.0, 1.718467682850947E9, 0.0, 2024-06-15 11:08:02.850
250.0, 77152.76803407288, 61013.06510127367, 72466.88127122895, -187500.02235174447, 107913.95400928904, -187500.02235174447, -163982.03092599285, -187500.02235174447, -0.02, 0.968, 0.19, 192.0, 0.0, 0.0, 0.0, 0.0, 0.0, 0.0, 0.0, 0.0, 0.0, 1.7184676828509643E9, 0.0, 2024-06-15 11:08:02.850
251.0, 77216.09052611477, 61099.99103546036, 72549.6721326914, -187500.02235174447, 108049.11500801028, -187500.02235174447, -163993.89970229863, -187500.02235174447, -0.02, 0.968, 0.19, 192.0, 0.0, 0.0, 0.0, 0.0, 0.0, 0.0, 0.0, 0.0, 0.0, 1.7184676828509831E9, 0.0, 2024-06-15 11:08:02.850
252.0, 77323.11067856678, 62836.18513777079, 73577.78532240217, -187500.02235174447, 107848.59750850171, -187500.02235174447, -163765.57663268765, -187500.02235174447, -0.02, 0.968, 0.19, 192.0, 0.0, 0.0, 0.0, 0.0, 0.0, 0.0, 0.0, 0.0, 0.0, 1.718467682851002E9, 0.0, 2024-06-15 11:08:02.851
253.0, 77275.993201255, 62858.693344437284, 73589.65409870794, -187500.02235174447, 107807.17972602604, -187500.02235174447, -163708.78085002673, -187500.02235174447, -0.02, 0.968, 0.19, 192.0, 0.0, 0.0, 0.0, 0.0, 0.0, 0.0, 0.0, 0.0, 0.0, 1.7184676828510363E9, 0.0, 2024-06-15 11:08:02.851
254.0, 77163.25100222243, 61252.76520881239, 72603.0928019396, -187500.02235174447, 107877.87829373816, -187500.02235174447, -163904.2468552884, -187500.02235174447, -0.024, 0.968, 0.192, 192.0, 255.0, 64.0, 30.0, 64.0, 6.0, 0.0, 0.0, 0.0, 0.0, 1.7184676828510544E9, 0.0, 2024-06-15 11:08:02.851
255.0, 77187.25677576743, 60867.91287278091, 72410.35370950148, -187500.02235174447, 108054.0547435349, -187500.02235174447, -163981.91916727056, -187500.02235174447, -0.024, 0.968, 0.192, 192.0, 0.0, 0.0, 0.0, 0.0, 0.0, 0.0, 0.0, 0.0, 0.0, 1.718467682851074E9, 0.0, 2024-06-15 11:08:02.851
0.0, 77300.02132654445, 62562.82330308239, 73413.90233205585, -187500.02235174447, 107862.79086623083, -187500.02235174447, -163772.95270835792, -187500.02235174447, -0.024, 0.968, 0.192, 192.0, 0.0, 0.0, 0.0, 0.0, 0.0, 0.0, 0.0, 0.0, 0.0, 1.7184676828510916E9, 0.0, 2024-06-15 11:08:02.851
1.0, 77277.11078847776, 62989.33929077856, 73681.63152714152, -187500.02235174447, 107795.95915030947, -187500.02235174447, -163662.19981458187, -187500.02235174447, -0.024, 0.968, 0.192, 192.0, 0.0, 0.0, 0.0, 0.0, 0.0, 0.0, 0.0, 0.0, 0.0, 1.71846768285113E9, 0.0, 2024-06-15 11:08:02.851
2.0, 77194.74461015995, 61522.662523110215, 72758.43742590398, -187500.02235174447, 107809.32549349374, -187500.02235174447, -163881.26926198832, -187500.02235174447, -0.024, 0.968, 0.192, 192.0, 0.0, 0.0, 0.0, 0.0, 0.0, 0.0, 0.0, 0.0, 0.0, 1.7184676828511856E9, 0.0, 2024-06-15 11:08:02.851
3.0, 77185.11100829972, 60720.10078669796, 72328.68043526178, -187500.02235174447, 108028.77492055595, -187500.02235174447, -164000.13583900165, -187500.02235174447, -0.024, 0.968, 0.192, 192.0, 0.0, 0.0, 0.0, 0.0, 0.0, 0.0, 0.0, 0.0, 0.0, 1.7184676828512428E9, 0.0, 2024-06-15 11:08:02.851
4.0, 77314.70642265158, 62264.673383793044, 73232.71909150113, -187500.02235174447, 107869.58579654525, -187500.02235174447, -163842.95837199193, -187500.02235174447, -0.024, 0.968, 0.192, 192.0, 0.0, 0.0, 0.0, 0.0, 0.0, 0.0, 0.0, 0.0, 0.0, 1.7184676828512917E9, 0.0, 2024-06-15 11:08:02.851
5.0, 77304.37991671324, 63099.77926013223, 73757.5604030562, -187500.02235174447, 107773.22742619843, -187500.02235174447, -163684.30568984814, -187500.02235174447, -0.024, 0.968, 0.192, 192.0, 0.0, 0.0, 0.0, 0.0, 0.0, 0.0, 0.0, 0.0, 0.0, 1.7184676828513012E9, 0.0, 2024-06-15 11:08:02.851
6.0, 77198.45499973954, 61833.77645418364, 72951.82471893128, -187500.02235174447, 107768.5335598628, -187500.02235174447, -163843.00307548084, -187500.02235174447, -0.024, 0.968, 0.192, 192.0, 0.0, 0.0, 0.0, 0.0, 0.0, 0.0, 0.0, 0.0, 0.0, 1.7184676828513105E9, 0.0, 2024-06-15 11:08:02.851
7.0, 77160.16646148759, 60674.48087626468, 72299.04202211405, -187500.02235174447, 107980.3833938102, -187500.02235174447, -164015.24561825342, -187500.02235174447, -0.024, 0.968, 0.192, 192.0, 0.0, 0.0, 0.0, 0.0, 0.0, 0.0, 0.0, 0.0, 0.0, 1.71846768285132E9, 0.0, 2024-06-15 11:08:02.851
8.0, 77261.82219527033, 61926.89382158445, 73045.7467491325, -187500.02235174447, 107910.15421273164, -187500.02235174447, -163863.00788676835, -187500.02235174447, -0.024, 0.974, 0.198, 192.0, 255.0, 64.0, 30.0, 112.0, 6.0, 48.0, 0.0, 0.0, 0.0, 1.718467682851329E9, 0.0, 2024-06-15 11:08:02.851
9.0, 77296.91443406515, 63118.621780708054, 73774.52537709777, -187500.02235174447, 107778.6365483566, -187500.02235174447, -163658.06474185764, -187500.02235174447, -0.024, 0.974, 0.198, 192.0, 0.0, 0.0, 0.0, 0.0, 0.0, 0.0, 0.0, 0.0, 0.0, 1.7184676828513381E9, 0.0, 2024-06-15 11:08:02.851
10.0, 77208.80385742235, 62129.7135507719, 73142.14982296823, -187500.02235174447, 107764.01850748283, -187500.02235174447, -163768.8623391226, -187500.02235174447, -0.024, 0.974, 0.198, 192.0, 0.0, 0.0, 0.0, 0.0, 0.0, 0.0, 0.0, 0.0, 0.0, 1.7184676828513472E9, 0.0, 2024-06-15 11:08:02.851
11.0, 77146.88952528113, 60713.887001739386, 72319.5162200351, -187500.02235174447, 107964.64776571367, -187500.02235174447, -163947.9892191874, -187500.02235174447, -0.024, 0.974, 0.198, 192.0, 0.0, 0.0, 0.0, 0.0, 0.0, 0.0, 0.0, 0.0, 0.0, 1.7184676828513565E9, 0.0, 2024-06-15 11:08:02.851
12.0, 77256.74834927898, 61600.87127695934, 72841.16123213306, -187500.02235174447, 107947.88395737219, -187500.02235174447, -163876.3742299526, -187500.02235174447, -0.024, 0.974, 0.198, 192.0, 0.0, 0.0, 0.0, 0.0, 0.0, 0.0, 0.0, 0.0, 0.0, 1.7184676828513656E9, 0.0, 2024-06-15 11:08:02.851
13.0, 77322.3507192553, 63084.13303901351, 73734.64986498951, -187500.02235174447, 107749.5345770758, -187500.02235174447, -163707.05976570366, -187500.02235174447, -0.024, 0.974, 0.198, 192.0, 0.0, 0.0, 0.0, 0.0, 0.0, 0.0, 0.0, 0.0, 0.0, 1.718467682851375E9, 0.0, 2024-06-15 11:08:02.851
14.0, 77230.3285873328, 62423.236658958995, 73326.5070112356, -187500.02235174447, 107741.7785217498, -187500.02235174447, -163742.97901904333, -187500.02235174447, -0.024, 0.974, 0.198, 192.0, 0.0, 0.0, 0.0, 0.0, 0.0, 0.0, 0.0, 0.0, 0.0, 1.7184676828513842E9, 0.0, 2024-06-15 11:08:02.851
15.0, 77145.72723456947, 60838.00623869971, 72385.29740396708, -187500.02235174447, 107889.14357294365, -187500.02235174447, -163960.61795480468, -187500.02235174447, -0.024, 0.974, 0.198, 192.0, 0.0, 0.0, 0.0, 0.0, 0.0, 0.0, 0.0, 0.0, 0.0, 1.7184676828513935E9, 0.0, 2024-06-15 11:08:02.851
16.0, 77207.08277309928, 61273.306461966815, 72672.49496847331, -187500.02235174447, 107988.45237355857, -187500.02235174447, -163890.4781807039, -187500.02235174447, -0.024, 0.974, 0.198, 192.0, 0.0, 0.0, 0.0, 0.0, 0.0, 0.0, 0.0, 0.0, 0.0, 1.7184676828514025E9, 0.0, 2024-06-15 11:08:02.851
17.0, 77303.86582659076, 62940.36661867698, 73659.4809483863, -187500.02235174447, 107784.51505714835, -187500.02235174447, -163675.8343786996, -187500.02235174447, -0.024, 0.974, 0.198, 192.0, 0.0, 0.0, 0.0, 0.0, 0.0, 0.0, 0.0, 0.0, 0.0, 1.718467682851412E9, 0.0, 2024-06-15 11:08:02.851
18.0, 77244.74546250647, 62664.65785082077, 73476.84484444199, -187500.02235174447, 107741.19737639396, -187500.02235174447, -163691.1900271404, -187500.02235174447, -0.026000000000000002, 0.974, 0.202, 192.0, 255.0, 48.0, 30.0, 112.0, 6.0, 80.0, 0.0, 0.0, 0.0, 1.7184676828514245E9, 0.0, 2024-06-15 11:08:02.851
19.0, 77148.45414739301, 61030.588868926636, 72483.3098034036, -187500.02235174447, 107823.16122331157, -187500.02235174447, -163942.5353935403, -187500.02235174447, -0.026000000000000002, 0.974, 0.202, 192.0, 0.0, 0.0, 0.0, 0.0, 0.0, 0.0, 0.0, 0.0, 0.0, 1.7184676828514338E9, 0.0, 2024-06-15 11:08:02.851
20.0, 77200.4219532516, 61003.40914766898, 72512.23296072877, -187500.02235174447, 107976.53889376389, -187500.02235174447, -163967.0105537189, -187500.02235174447, -0.026000000000000002, 0.974, 0.202, 192.0, 0.0, 0.0, 0.0, 0.0, 0.0, 0.0, 0.0, 0.0, 0.0, 1.7184676828514433E9, 0.0, 2024-06-15 11:08:02.851
21.0, 77314.77347788496, 62743.291287814536, 73541.84371731803, -187500.02235174447, 107780.37998442411, -187500.02235174447, -163743.11312951008, -187500.02235174447, -0.026000000000000002, 0.974, 0.202, 192.0, 0.0, 0.0, 0.0, 0.0, 0.0, 0.0, 0.0, 0.0, 0.0, 1.718467682851452E9, 0.0, 2024-06-15 11:08:02.851
22.0, 77270.38291339671, 62862.85076890598, 73619.85130546705, -187500.02235174447, 107744.0360479398, -187500.02235174447, -163670.44760828587, -187500.02235174447, -0.026000000000000002, 0.974, 0.202, 192.0, 0.0, 0.0, 0.0, 0.0, 0.0, 0.0, 0.0, 0.0, 0.0, 1.7184676828514616E9, 0.0, 2024-06-15 11:08:02.851
23.0, 77169.71065637, 61286.00225281742, 72638.45326166788, -187500.02235174447, 107794.23806598641, -187500.02235174447, -163886.8348463577, -187500.02235174447, -0.026000000000000002, 0.974, 0.202, 192.0, 0.0, 0.0, 0.0, 0.0, 0.0, 0.0, 0.0, 0.0, 0.0, 1.7184676828514707E9, 0.0, 2024-06-15 11:08:02.851
24.0, 77187.41323797862, 60804.65743597239, 72396.339165728, -187500.02235174447, 107987.40184156917, -187500.02235174447, -163973.78313228884, -187500.02235174447, -0.026000000000000002, 0.974, 0.202, 192.0, 0.0, 0.0, 0.0, 0.0, 0.0, 0.0, 0.0, 0.0, 0.0, 1.7184676828514805E9, 0.0, 2024-06-15 11:08:02.851
25.0, 77292.19821598509, 62484.59219748881, 73394.99275624666, -187500.02235174447, 107826.46928149096, -187500.02235174447, -163746.8458708341, -187500.02235174447, -0.026000000000000002, 0.974, 0.202, 192.0, 0.0, 0.0, 0.0, 0.0, 0.0, 0.0, 0.0, 0.0, 0.0, 1.7184676828514936E9, 0.0, 2024-06-15 11:08:02.851
26.0, 77248.61231429724, 63008.2712183322, 73720.5459142382, -187500.02235174447, 107780.42468791304, -187500.02235174447, -163584.30398515513, -187500.02235174447, -0.026000000000000002, 0.974, 0.202, 192.0, 0.0, 0.0, 0.0, 0.0, 0.0, 0.0, 0.0, 0.0, 0.0, 1.7184676828515031E9, 0.0, 2024-06-15 11:08:02.851
27.0, 77163.31805745579, 61571.79165742298, 72796.45774322245, -187500.02235174447, 107779.66472860155, -187500.02235174447, -163795.3044528132, -187500.02235174447, -0.026000000000000002, 0.974, 0.202, 192.0, 0.0, 0.0, 0.0, 0.0, 0.0, 0.0, 0.0, 0.0, 0.0, 1.718467682851513E9, 0.0, 2024-06-15 11:08:02.851
28.0, 77158.98181903145, 60676.559588499025, 72302.81946692699, -187500.02235174447, 107984.3843560677, -187500.02235174447, -163948.88328896562, -187500.02235174447, -0.026000000000000002, 0.974, 0.202, 192.0, 0.0, 0.0, 0.0, 0.0, 0.0, 0.0, 0.0, 0.0, 0.0, 1.7184676828515224E9, 0.0, 2024-06-15 11:08:02.851
29.0, 77287.43729441612, 62168.15855123503, 73181.69005890966, -187500.02235174447, 107829.08443559223, -187500.02235174447, -163814.4598978114, -187500.02235174447, -0.024, 0.974, 0.2, 192.0, 255.0, 64.0, 30.0, 112.0, 6.0, 64.0, 0.0, 0.0, 0.0, 1.7184676828515365E9, 0.0, 2024-06-15 11:08:02.851
30.0, 77289.89598630619, 63102.5955799336, 73769.3174206397, -187500.02235174447, 107728.94862043246, -187500.02235174447, -163643.82668063958, -187500.02235174447, -0.024, 0.974, 0.2, 192.0, 0.0, 0.0, 0.0, 0.0, 0.0, 0.0, 0.0, 0.0, 0.0, 1.7184676828515506E9, 0.0, 2024-06-15 11:08:02.851
31.0, 77198.3208892728, 61893.34385315703, 73001.73616429999, -187500.02235174447, 107733.1283966456, -187500.02235174447, -163781.60283346212, -187500.02235174447, -0.024, 0.974, 0.2, 192.0, 0.0, 0.0, 0.0, 0.0, 0.0, 0.0, 0.0, 0.0, 0.0, 1.7184676828515644E9, 0.0, 2024-06-15 11:08:02.851
32.0, 77160.43468242105, 60655.168969055296, 72303.2665018161, -187500.02235174447, 107940.86550961323, -187500.02235174447, -163970.54212934282, -187500.02235174447, -0.024, 0.974, 0.2, 192.0, 0.0, 0.0, 0.0, 0.0, 0.0, 0.0, 0.0, 0.0, 0.0, 1.7184676828515973E9, 0.0, 2024-06-15 11:08:02.851
33.0, 77263.16329993765, 61825.90864013537, 73004.37367014571, -187500.02235174447, 107881.09694493974, -187500.02235174447, -163834.15178467653, -187500.02235174447, -0.024, 0.974, 0.2, 192.0, 0.0, 0.0, 0.0, 0.0, 0.0, 0.0, 0.0, 0.0, 0.0, 1.718467682851611E9, 0.0, 2024-06-15 11:08:02.851
34.0, 77301.7424108675, 63096.65001590848, 73779.93449925596, -187500.02235174447, 107735.54238504678, -187500.02235174447, -163626.79465136465, -187500.02235174447, -0.024, 0.974, 0.2, 192.0, 0.0, 0.0, 0.0, 0.0, 0.0, 0.0, 0.0, 0.0, 0.0, 1.718467682851624E9, 0.0, 2024-06-15 11:08:02.851
35.0, 77204.10999108672, 62168.2256064684, 73182.31590775441, -187500.02235174447, 107712.922419658, -187500.02235174447, -163725.85758279057, -187500.02235174447, -0.024, 0.974, 0.2, 192.0, 0.0, 0.0, 0.0, 0.0, 0.0, 0.0, 0.0, 0.0, 0.0, 1.7184676828516579E9, 0.0, 2024-06-15 11:08:02.851
36.0, 77139.80402228881, 60698.73251899869, 72323.0701474035, -187500.02235174447, 107890.95406424452, -187500.02235174447, -163947.7880534873, -187500.02235174447, -0.024, 0.974, 0.2, 192.0, 0.0, 0.0, 0.0, 0.0, 0.0, 0.0, 0.0, 0.0, 0.0, 1.718467682851687E9, 0.0, 2024-06-15 11:08:02.851
37.0, 77231.7814507224, 61491.92887448417, 72805.19727530447, -187500.02235174447, 107912.92582904409, -187500.02235174447, -163866.4724071589, -187500.02235174447, -0.024, 0.974, 0.2, 192.0, 0.0, 0.0, 0.0, 0.0, 0.0, 0.0, 0.0, 0.0, 0.0, 1.7184676828517208E9, 0.0, 2024-06-15 11:08:02.851
38.0, 77304.91635858016, 63034.55686981164, 73730.67125447646, -187500.02235174447, 107732.10021640065, -187500.02235174447, -163634.79657587965, -187500.02235174447, -0.024, 0.974, 0.2, 192.0, 0.0, 0.0, 0.0, 0.0, 0.0, 0.0, 0.0, 0.0, 0.0, 1.718467682851771E9, 0.0, 2024-06-15 11:08:02.851
39.0, 77233.63664551219, 62458.485359965016, 73360.68282850776, -187500.02235174447, 107716.0740156262, -187500.02235174447, -163660.6798959589, -187500.02235174447, -0.022, 0.974, 0.20400000000000001, 192.0, 255.0, 80.0, 30.0, 112.0, 6.0, 96.0, 0.0, 0.0, 0.0, 1.7184676828517864E9, 0.0, 2024-06-15 11:08:02.851
40.0, 77158.24421146444, 60856.357020897514, 72400.83186636351, -187500.02235174447, 107855.48184579395, -187500.02235174447, -163890.3440702372, -187500.02235174447, -0.022, 0.974, 0.20400000000000001, 192.0, 0.0, 0.0, 0.0, 0.0, 0.0, 0.0, 0.0, 0.0, 0.0, 1.7184676828518364E9, 0.0, 2024-06-15 11:08:02.851
41.0, 77236.40826182465, 61193.93541740601, 72617.53202885772, -187500.02235174447, 107947.10164631625, -187500.02235174447, -163884.44320970098, -187500.02235174447, -0.022, 0.974, 0.20400000000000001, 192.0, 0.0, 0.0, 0.0, 0.0, 0.0, 0.0, 0.0, 0.0, 0.0, 1.7184676828518512E9, 0.0, 2024-06-15 11:08:02.851
42.0, 77322.44012623312, 62892.31036809807, 73626.40036659245, -187500.02235174447, 107726.64639075357, -187500.02235174447, -163692.26291087424, -187500.02235174447, -0.022, 0.974, 0.20400000000000001, 192.0, 0.0, 0.0, 0.0, 0.0, 0.0, 0.0, 0.0, 0.0, 0.0, 1.7184676828518665E9, 0.0, 2024-06-15 11:08:02.851
43.0, 77249.37227360872, 62697.82783959244, 73514.01579547118, -187500.02235174447, 107699.55607647373, -187500.02235174447, -163662.80331168216, -187500.02235174447, -0.022, 0.974, 0.20400000000000001, 192.0, 0.0, 0.0, 0.0, 0.0, 0.0, 0.0, 0.0, 0.0, 0.0, 1.7184676828518822E9, 0.0, 2024-06-15 11:08:02.851
44.0, 77159.00417077592, 61066.21754958839, 72513.21643748479, -187500.02235174447, 107773.76386806535, -187500.02235174447, -163911.95820712546, -187500.02235174447, -0.022, 0.974, 0.20400000000000001, 192.0, 0.0, 0.0, 0.0, 0.0, 0.0, 0.0, 0.0, 0.0, 0.0, 1.7184676828518968E9, 0.0, 2024-06-15 11:08:02.851
45.0, 77185.53569144437, 60926.697960698366, 72480.53818709114, -187500.02235174447, 107952.62252719671, -187500.02235174447, -163935.51694578136, -187500.02235174447, -0.022, 0.974, 0.20400000000000001, 192.0, 0.0, 0.0, 0.0, 0.0, 0.0, 0.0, 0.0, 0.0, 0.0, 1.7184676828519123E9, 0.0, 2024-06-15 11:08:02.851
46.0, 77293.91930030815, 62666.311879910456, 73505.14215292242, -187500.02235174447, 107759.2352341694, -187500.02235174447, -163703.97522496883, -187500.02235174447, -0.022, 0.974, 0.20400000000000001, 192.0, 0.0, 0.0, 0.0, 0.0, 0.0, 0.0, 0.0, 0.0, 0.0, 1.7184676828519273E9, 0.0, 2024-06-15 11:08:02.851
47.0, 77263.4315208711, 62881.33566157051, 73631.47421258381, -187500.02235174447, 107706.90980039953, -187500.02235174447, -163620.44675593934, -187500.02235174447, -0.022, 0.974, 0.20400000000000001, 192.0, 0.0, 0.0, 0.0, 0.0, 0.0, 0.0, 0.0, 0.0, 0.0, 1.7184676828519423E9, 0.0, 2024-06-15 11:08:02.851
48.0, 77180.66301115311, 61327.66590448212, 72658.68159039994, -187500.02235174447, 107726.46757679792, -187500.02235174447, -163876.1730642525, -187500.02235174447, -0.022, 0.974, 0.20400000000000001, 192.0, 0.0, 0.0, 0.0, 0.0, 0.0, 0.0, 0.0, 0.0, 0.0, 1.7184676828519585E9, 0.0, 2024-06-15 11:08:02.851
49.0, 77196.80097064984, 60747.01228702215, 72367.43836014728, -187500.02235174447, 107928.81791935182, -187500.02235174447, -163985.33898417224, -187500.02235174447, -0.022, 0.974, 0.202, 192.0, 255.0, 80.0, 30.0, 112.0, 6.0, 80.0, 0.0, 0.0, 0.0, 1.7184676828519733E9, 0.0, 2024-06-15 11:08:02.851
50.0, 77325.43525999013, 62395.94517897906, 73341.43797653174, -187500.02235174447, 107751.45682709895, -187500.02235174447, -163801.98762440536, -187500.02235174447, -0.022, 0.974, 0.202, 192.0, 0.0, 0.0, 0.0, 0.0, 0.0, 0.0, 0.0, 0.0, 0.0, 1.718467682851988E9, 0.0, 2024-06-15 11:08:02.851
51.0, 77292.8911200632, 63012.80862245663, 73737.08620513514, -187500.02235174447, 107689.85541938012, -187500.02235174447, -163635.10950030203, -187500.02235174447, -0.022, 0.974, 0.202, 192.0, 0.0, 0.0, 0.0, 0.0, 0.0, 0.0, 0.0, 0.0, 0.0, 1.7184676828520036E9, 0.0, 2024-06-15 11:08:02.852
52.0, 77193.00117409244, 61619.0432452015, 72855.53340381783, -187500.02235174447, 107703.64644570905, -187500.02235174447, -163813.49877279982, -187500.02235174447, -0.022, 0.974, 0.202, 192.0, 0.0, 0.0, 0.0, 0.0, 0.0, 0.0, 0.0, 0.0, 0.0, 1.718467682852019E9, 0.0, 2024-06-15 11:08:02.852
53.0, 77166.40259819062, 60637.689904891246, 72313.66006298782, -187500.02235174447, 107930.71781763052, -187500.02235174447, -163950.87259422216, -187500.02235174447, -0.022, 0.974, 0.202, 192.0, 0.0, 0.0, 0.0, 0.0, 0.0, 0.0, 0.0, 0.0, 0.0, 1.7184676828520691E9, 0.0, 2024-06-15 11:08:02.852
54.0, 77289.00191652798, 62073.968300100365, 73152.20810797311, -187500.02235174447, 107805.97273182544, -187500.02235174447, -163799.3054150707, -187500.02235174447, -0.022, 0.974, 0.202, 192.0, 0.0, 0.0, 0.0, 0.0, 0.0, 0.0, 0.0, 0.0, 0.0, 1.7184676828520997E9, 0.0, 2024-06-15 11:08:02.852
55.0, 77304.37991671324, 63091.26324549476, 73777.31934515468, -187500.02235174447, 107689.43073623547, -187500.02235174447, -163617.29515997114, -187500.02235174447, -0.022, 0.974, 0.202, 192.0, 0.0, 0.0, 0.0, 0.0, 0.0, 0.0, 0.0, 0.0, 0.0, 1.7184676828521528E9, 0.0, 2024-06-15 11:08:02.852
56.0, 77208.53563648887, 61941.0201240802, 73039.86824034074, -187500.02235174447, 107675.08091629516, -187500.02235174447, -163765.24135652083, -187500.02235174447, -0.022, 0.974, 0.202, 192.0, 0.0, 0.0, 0.0, 0.0, 0.0, 0.0, 0.0, 0.0, 0.0, 1.718467682852188E9, 0.0, 2024-06-15 11:08:02.852
57.0, 77156.25490620792, 60640.61798341489, 72302.73005994917, -187500.02235174447, 107889.3670903882, -187500.02235174447, -163941.70837899548, -187500.02235174447, -0.022, 0.974, 0.202, 192.0, 0.0, 0.0, 0.0, 0.0, 0.0, 0.0, 0.0, 0.0, 0.0, 1.7184676828522184E9, 0.0, 2024-06-15 11:08:02.852
58.0, 77277.82604430032, 61741.3743426054, 72955.49040502196, -187500.02235174447, 107844.99887764441, -187500.02235174447, -163824.6746450275, -187500.02235174447, -0.022, 0.974, 0.202, 192.0, 0.0, 0.0, 0.0, 0.0, 0.0, 0.0, 0.0, 0.0, 0.0, 1.718467682852234E9, 0.0, 2024-06-15 11:08:02.852
59.0, 77321.81427738837, 63085.138867514004, 73767.93161248346, -187500.02235174447, 107684.4686489664, -187500.02235174447, -163620.35734896152, -187500.02235174447, -0.018000000000000002, 0.972, 0.20400000000000001, 192.0, 255.0, 112.0, 30.0, 96.0, 6.0, 96.0, 0.0, 0.0, 0.0, 1.7184676828522701E9, 0.0, 2024-06-15 11:08:02.852
60.0, 77237.74936649196, 62238.83476720271, 73224.11366988585, -187500.02235174447, 107658.87590156507, -187500.02235174447, -163717.67684431994, -187500.02235174447, -0.018000000000000002, 0.972, 0.20400000000000001, 192.0, 0.0, 0.0, 0.0, 0.0, 0.0, 0.0, 0.0, 0.0, 0.0, 1.7184676828522854E9, 0.0, 2024-06-15 11:08:02.852
61.0, 77179.00898206342, 60730.047312980576, 72342.04677844606, -187500.02235174447, 107820.88134537713, -187500.02235174447, -163958.87451873714, -187500.02235174447, -0.018000000000000002, 0.972, 0.20400000000000001, 192.0, 0.0, 0.0, 0.0, 0.0, 0.0, 0.0, 0.0, 0.0, 0.0, 1.7184676828522997E9, 0.0, 2024-06-15 11:08:02.852
62.0, 77260.07875920282, 61417.07288230335, 72771.26732722131, -187500.02235174447, 107862.45559006401, -187500.02235174447, -163892.51218944933, -187500.02235174447, -0.018000000000000002, 0.972, 0.20400000000000001, 192.0, 0.0, 0.0, 0.0, 0.0, 0.0, 0.0, 0.0, 0.0, 0.0, 1.7184676828523147E9, 0.0, 2024-06-15 11:08:02.852
63.0, 77335.15826882819, 63010.03700614417, 73722.66932996147, -187500.02235174447, 107671.0128988043, -187500.02235174447, -163681.1764456244, -187500.02235174447, -0.018000000000000002, 0.972, 0.20400000000000001, 192.0, 0.0, 0.0, 0.0, 0.0, 0.0, 0.0, 0.0, 0.0, 0.0, 1.7184676828523288E9, 0.0, 2024-06-15 11:08:02.852
64.0, 77247.42767184111, 62509.8049652344, 73409.40963142033, -187500.02235174447, 107655.34432594113, -187500.02235174447, -163694.3863265975, -187500.02235174447, -0.018000000000000002, 0.972, 0.20400000000000001, 192.0, 0.0, 0.0, 0.0, 0.0, 0.0, 0.0, 0.0, 0.0, 0.0, 1.7184676828523436E9, 0.0, 2024-06-15 11:08:02.852
65.0, 77155.53965038534, 60879.13344849747, 72423.83181140803, -187500.02235174447, 107775.10497273266, -187500.02235174447, -163934.01937890286, -187500.02235174447, -0.018000000000000002, 0.972, 0.20400000000000001, 192.0, 0.0, 0.0, 0.0, 0.0, 0.0, 0.0, 0.0, 0.0, 0.0, 1.7184676828523576E9, 0.0, 2024-06-15 11:08:02.852
66.0, 77216.38109879268, 61102.53913432827, 72582.28332785169, -187500.02235174447, 107893.83743927926, -187500.02235174447, -163925.86099217666, -187500.02235174447, -0.018000000000000002, 0.972, 0.20400000000000001, 192.0, 0.0, 0.0, 0.0, 0.0, 0.0, 0.0, 0.0, 0.0, 0.0, 1.7184676828523724E9, 0.0, 2024-06-15 11:08:02.852
67.0, 77315.22051277406, 62826.618591143924, 73598.39363078996, -187500.02235174447, 107688.2684455238, -187500.02235174447, -163707.21622791485, -187500.02235174447, -0.018000000000000002, 0.972, 0.20400000000000001, 192.0, 0.0, 0.0, 0.0, 0.0, 0.0, 0.0, 0.0, 0.0, 0.0, 1.7184676828523877E9, 0.0, 2024-06-15 11:08:02.852
68.0, 77238.21875312552, 62725.49929922811, 73538.24508646072, -187500.02235174447, 107666.43079119097, -187500.02235174447, -163647.626477197, -187500.02235174447, -0.018000000000000002, 0.972, 0.20400000000000001, 192.0, 0.0, 0.0, 0.0, 0.0, 0.0, 0.0, 0.0, 0.0, 0.0, 1.7184676828524032E9, 0.0, 2024-06-15 11:08:02.852
69.0, 77149.68349333806, 61100.92980872749, 72537.17750754088, -187500.02235174447, 107729.61917276612, -187500.02235174447, -163897.6307389296, -187500.02235174447, -0.018000000000000002, 0.972, 0.20400000000000001, 192.0, 0.0, 0.0, 0.0, 0.0, 0.0, 0.0, 0.0, 0.0, 0.0, 1.718467682852455E9, 0.0, 2024-06-15 11:08:02.852
70.0, 77184.73102864398, 60864.403648901425, 72439.32157031556, -187500.02235174447, 107902.0181777499, -187500.02235174447, -163957.9580972145, -187500.02235174447, -0.018000000000000002, 0.972, 0.202, 192.0, 255.0, 112.0, 30.0, 96.0, 6.0, 80.0, 0.0, 0.0, 0.0, 1.7184676828524697E9, 0.0, 2024-06-15 11:08:02.852
71.0, 77303.26232949046, 62596.08269883189, 73460.52807098962, -187500.02235174447, 107696.94092237247, -187500.02235174447, -163760.12280704055, -187500.02235174447, -0.018000000000000002, 0.972, 0.202, 192.0, 0.0, 0.0, 0.0, 0.0, 0.0, 0.0, 0.0, 0.0, 0.0, 1.7184676828524852E9, 0.0, 2024-06-15 11:08:02.852
72.0, 77260.72695979202, 62902.97215020325, 73666.63350661201, -187500.02235174447, 107664.64265163454, -187500.02235174447, -163636.98704683626, -187500.02235174447, -0.018000000000000002, 0.972, 0.202, 192.0, 0.0, 0.0, 0.0, 0.0, 0.0, 0.0, 0.0, 0.0, 0.0, 1.7184676828525E9, 0.0, 2024-06-15 11:08:02.852
73.0, 77166.69317086854, 61383.3888034092, 72716.68436726146, -187500.02235174447, 107711.38014929059, -187500.02235174447, -163825.05462468322, -187500.02235174447, -0.018000000000000002, 0.972, 0.202, 192.0, 0.0, 0.0, 0.0, 0.0, 0.0, 0.0, 0.0, 0.0, 0.0, 1.718467682852515E9, 0.0, 2024-06-15 11:08:02.852
74.0, 77177.13143552917, 60701.75000450016, 72356.26248791964, -187500.02235174447, 107930.80722460833, -187500.02235174447, -163916.00387287186, -187500.02235174447, -0.018000000000000002, 0.972, 0.202, 192.0, 0.0, 0.0, 0.0, 0.0, 0.0, 0.0, 0.0, 0.0, 0.0, 1.7184676828525295E9, 0.0, 2024-06-15 11:08:02.852
75.0, 77304.46932369105, 62306.627608135655, 73285.46920841566, -187500.02235174447, 107749.35576312015, -187500.02235174447, -163748.2987342237, -187500.02235174447, -0.018000000000000002, 0.972, 0.202, 192.0, 0.0, 0.0, 0.0, 0.0, 0.0, 0.0, 0.0, 0.0, 0.0, 1.718467682852544E9, 0.0, 2024-06-15 11:08:02.852
76.0, 77302.45766669008, 63024.386826084476, 73724.39041428453, -187500.02235174447, 107643.67671533546, -187500.02235174447, -163625.2300292528, -187500.02235174447, -0.018000000000000002, 0.972, 0.202, 192.0, 0.0, 0.0, 0.0, 0.0, 0.0, 0.0, 0.0, 0.0, 0.0, 1.718467682852559E9, 0.0, 2024-06-15 11:08:02.852
77.0, 77196.37628750519, 61682.8574756214, 72883.4060291536, -187500.02235174447, 107652.63976486203, -187500.02235174447, -163797.27140632528, -187500.02235174447, -0.018000000000000002, 0.972, 0.202, 192.0, 0.0, 0.0, 0.0, 0.0, 0.0, 0.0, 0.0, 0.0, 0.0, 1.7184676828525891E9, 0.0, 2024-06-15 11:08:02.852
78.0, 77165.84380457924, 60613.10298599041, 72291.08480108796, -187500.02235174447, 107871.86567447969, -187500.02235174447, -163957.37695185863, -187500.02235174447, -0.018000000000000002, 0.972, 0.202, 192.0, 0.0, 0.0, 0.0, 0.0, 0.0, 0.0, 0.0, 0.0, 0.0, 1.7184676828526251E9, 0.0, 2024-06-15 11:08:02.852
79.0, 77282.83283505832, 61969.49624651626, 73089.17618860916, -187500.02235174447, 107768.2876906738, -187500.02235174447, -163808.93901693096, -187500.02235174447, -0.018000000000000002, 0.972, 0.202, 192.0, 0.0, 0.0, 0.0, 0.0, 0.0, 0.0, 0.0, 0.0, 0.0, 1.7184676828526397E9, 0.0, 2024-06-15 11:08:02.852
80.0, 77299.01549804395, 63060.44018989089, 73757.09101642264, -187500.02235174447, 107645.5095583808, -187500.02235174447, -163627.10757578703, -187500.02235174447, -0.026000000000000002, 0.972, 0.20600000000000002, 192.0, 255.0, 48.0, 30.0, 96.0, 6.0, 112.0, 0.0, 0.0, 0.0, 1.7184676828526535E9, 0.0, 2024-06-15 11:08:02.852
81.0, 77202.74653467495, 61973.720726218315, 73060.65536268418, -187500.02235174447, 107633.21609893038, -187500.02235174447, -163760.6592489075, -187500.02235174447, -0.026000000000000002, 0.972, 0.20600000000000002, 192.0, 0.0, 0.0, 0.0, 0.0, 0.0, 0.0, 0.0, 0.0, 0.0, 1.7184676828526838E9, 0.0, 2024-06-15 11:08:02.852
82.0, 77154.89144979614, 60623.4071401843, 72287.53087371956, -187500.02235174447, 107834.51590949488, -187500.02235174447, -163960.93087922703, -187500.02235174447, -0.026000000000000002, 0.972, 0.20600000000000002, 192.0, 0.0, 0.0, 0.0, 0.0, 0.0, 0.0, 0.0, 0.0, 0.0, 1.718467682852719E9, 0.0, 2024-06-15 11:08:02.852
83.0, 77259.43055861362, 61634.08596921992, 72895.47597115947, -187500.02235174447, 107815.33811275222, -187500.02235174447, -163849.03804648377, -187500.02235174447, -0.026000000000000002, 0.972, 0.20600000000000002, 192.0, 0.0, 0.0, 0.0, 0.0, 0.0, 0.0, 0.0, 0.0, 0.0, 1.7184676828527331E9, 0.0, 2024-06-15 11:08:02.852
84.0, 77312.76182088397, 63047.40912287345, 73746.98802792883, -187500.02235174447, 107657.02070677528, -187500.02235174447, -163631.73438688926, -187500.02235174447, -0.026000000000000002, 0.972, 0.20600000000000002, 192.0, 0.0, 0.0, 0.0, 0.0, 0.0, 0.0, 0.0, 0.0, 0.0, 1.7184676828527477E9, 0.0, 2024-06-15 11:08:02.852
85.0, 77230.19447686608, 62285.594616603215, 73252.09805394389, -187500.02235174447, 107632.43378787444, -187500.02235174447, -163709.83138201613, -187500.02235174447, -0.026000000000000002, 0.972, 0.20600000000000002, 192.0, 0.0, 0.0, 0.0, 0.0, 0.0, 0.0, 0.0, 0.0, 0.0, 1.7184676828527615E9, 0.0, 2024-06-15 11:08:02.852
86.0, 77158.42302542008, 60739.21152820725, 72350.2722204056, -187500.02235174447, 107796.16031600957, -187500.02235174447, -163928.40909104457, -187500.02235174447, -0.026000000000000002, 0.972, 0.20600000000000002, 192.0, 0.0, 0.0, 0.0, 0.0, 0.0, 0.0, 0.0, 0.0, 0.0, 1.7184676828527756E9, 0.0, 2024-06-15 11:08:02.852
87.0, 77238.82225022581, 61316.93706714357, 72721.0653091747, -187500.02235174447, 107870.77043900138, -187500.02235174447, -163854.13424421957, -187500.02235174447, -0.026000000000000002, 0.972, 0.20600000000000002, 192.0, 0.0, 0.0, 0.0, 0.0, 0.0, 0.0, 0.0, 0.0, 0.0, 1.718467682852805E9, 0.0, 2024-06-15 11:08:02.852
88.0, 77316.06987906336, 62935.73980757473, 73695.55666393718, -187500.02235174447, 107692.55998045922, -187500.02235174447, -163612.44483142433, -187500.02235174447, -0.026000000000000002, 0.972, 0.20600000000000002, 192.0, 0.0, 0.0, 0.0, 0.0, 0.0, 0.0, 0.0, 0.0, 0.0, 1.7184676828528392E9, 0.0, 2024-06-15 11:08:02.852
89.0, 77257.64241905719, 62529.295686399426, 73427.40278570686, -187500.02235174447, 107659.81467483219, -187500.02235174447, -163632.91902934542, -187500.02235174447, -0.026000000000000002, 0.972, 0.20600000000000002, 192.0, 0.0, 0.0, 0.0, 0.0, 0.0, 0.0, 0.0, 0.0, 0.0, 1.718467682852853E9, 0.0, 2024-06-15 11:08:02.852
90.0, 77176.50558668442, 60905.17323078791, 72440.90854417188, -187500.02235174447, 107749.04283869777, -187500.02235174447, -163904.91740762204, -187500.02235174447, -0.024, 0.966, 0.20400000000000001, 192.0, 255.0, 64.0, 30.0, 48.0, 6.0, 96.0, 0.0, 0.0, 0.0, 1.718467682852867E9, 0.0, 2024-06-15 11:08:02.852
91.0, 77214.28003481388, 61019.14477576552, 72552.1755280704, -187500.02235174447, 107899.11245097072, -187500.02235174447, -163885.1361137791, -187500.02235174447, -0.024, 0.966, 0.20400000000000001, 192.0, 0.0, 0.0, 0.0, 0.0, 0.0, 0.0, 0.0, 0.0, 0.0, 1.718467682852882E9, 0.0, 2024-06-15 11:08:02.852
92.0, 77321.36724249927, 62752.74607571913, 73571.43742697686, -187500.02235174447, 107691.28593102527, -187500.02235174447, -163671.8334164421, -187500.02235174447, -0.024, 0.966, 0.20400000000000001, 192.0, 0.0, 0.0, 0.0, 0.0, 0.0, 0.0, 0.0, 0.0, 0.0, 1.7184676828528976E9, 0.0, 2024-06-15 11:08:02.852
93.0, 77260.07875920282, 62744.833558181956, 73560.10509253801, -187500.02235174447, 107645.62131710307, -187500.02235174447, -163631.80144212264, -187500.02235174447, -0.024, 0.966, 0.20400000000000001, 192.0, 0.0, 0.0, 0.0, 0.0, 0.0, 0.0, 0.0, 0.0, 0.0, 1.7184676828529117E9, 0.0, 2024-06-15 11:08:02.852
94.0, 77169.19656624754, 61137.6313731231, 72564.1784148429, -187500.02235174447, 107694.48223048238, -187500.02235174447, -163881.00104105487, -187500.02235174447, -0.024, 0.966, 0.20400000000000001, 192.0, 0.0, 0.0, 0.0, 0.0, 0.0, 0.0, 0.0, 0.0, 0.0, 1.7184676828529408E9, 0.0, 2024-06-15 11:08:02.852
95.0, 77203.8194184088, 60791.58166546604, 72413.12532581393, -187500.02235174447, 107877.63242454916, -187500.02235174447, -163959.7462367709, -187500.02235174447, -0.024, 0.966, 0.20400000000000001, 192.0, 0.0, 0.0, 0.0, 0.0, 0.0, 0.0, 0.0, 0.0, 0.0, 1.718467682852954E9, 0.0, 2024-06-15 11:08:02.852
96.0, 77311.30895749437, 62497.46680229507, 73424.80998335005, -187500.02235174447, 107700.7183671854, -187500.02235174447, -163738.46396666337, -187500.02235174447, -0.024, 0.966, 0.20400000000000001, 192.0, 0.0, 0.0, 0.0, 0.0, 0.0, 0.0, 0.0, 0.0, 0.0, 1.7184676828529675E9, 0.0, 2024-06-15 11:08:02.852
97.0, 77271.56755585285, 62901.563990302566, 73675.46244567186, -187500.02235174447, 107654.74082884083, -187500.02235174447, -163607.50509589972, -187500.02235174447, -0.024, 0.966, 0.20400000000000001, 192.0, 0.0, 0.0, 0.0, 0.0, 0.0, 0.0, 0.0, 0.0, 0.0, 1.718467682853002E9, 0.0, 2024-06-15 11:08:02.853
98.0, 77177.06438029581, 61420.87267886075, 72734.1187279366, -187500.02235174447, 107666.63195689107, -187500.02235174447, -163832.85538349813, -187500.02235174447, -0.024, 0.966, 0.20400000000000001, 192.0, 0.0, 0.0, 0.0, 0.0, 0.0, 0.0, 0.0, 0.0, 0.0, 1.7184676828530169E9, 0.0, 2024-06-15 11:08:02.853
99.0, 77146.68835958104, 60633.59953565592, 72329.52980155108, -187500.02235174447, 107910.6235993652, -187500.02235174447, -163910.08066059122, -187500.02235174447, -0.024, 0.966, 0.20400000000000001, 192.0, 0.0, 0.0, 0.0, 0.0, 0.0, 0.0, 0.0, 0.0, 0.0, 1.7184676828530312E9, 0.0, 2024-06-15 11:08:02.853
100.0, 77275.7920355549, 62178.88738857358, 73220.15741111725, -187500.02235174447, 107752.59676606617, -187500.02235174447, -163741.41439693148, -187500.02235174447, -0.024, 0.972, 0.2, 192.0, 255.0, 64.0, 30.0, 96.0, 6.0, 64.0, 0.0, 0.0, 0.0, 1.718467682853046E9, 0.0, 2024-06-15 11:08:02.853
101.0, 77289.65011711718, 62991.03802335716, 73718.31073979268, -187500.02235174447, 107647.29769793722, -187500.02235174447, -163620.29029372815, -187500.02235174447, -0.024, 0.972, 0.2, 192.0, 0.0, 0.0, 0.0, 0.0, 0.0, 0.0, 0.0, 0.0, 0.0, 1.7184676828530755E9, 0.0, 2024-06-15 11:08:02.853
102.0, 77198.25383403944, 61713.97110390319, 72913.58088416826, -187500.02235174447, 107640.10043622261, -187500.02235174447, -163807.08382214117, -187500.02235174447, -0.024, 0.972, 0.2, 192.0, 0.0, 0.0, 0.0, 0.0, 0.0, 0.0, 0.0, 0.0, 0.0, 1.71846768285309E9, 0.0, 2024-06-15 11:08:02.853
103.0, 77162.3122289553, 60579.06127918498, 72288.84962664242, -187500.02235174447, 107861.49446505243, -187500.02235174447, -163971.54795784332, -187500.02235174447, -0.024, 0.972, 0.2, 192.0, 0.0, 0.0, 0.0, 0.0, 0.0, 0.0, 0.0, 0.0, 0.0, 1.718467682853104E9, 0.0, 2024-06-15 11:08:02.853
104.0, 77280.88823329071, 61865.717097010274, 73053.27928701392, -187500.02235174447, 107790.19240024, -187500.02235174447, -163816.65036876802, -187500.02235174447, -0.024, 0.972, 0.2, 192.0, 0.0, 0.0, 0.0, 0.0, 0.0, 0.0, 0.0, 0.0, 0.0, 1.718467682853119E9, 0.0, 2024-06-15 11:08:02.853
105.0, 77303.86582659076, 63038.87075649152, 73777.98989748835, -187500.02235174447, 107686.68147166747, -187500.02235174447, -163589.60134859104, -187500.02235174447, -0.024, 0.972, 0.2, 192.0, 0.0, 0.0, 0.0, 0.0, 0.0, 0.0, 0.0, 0.0, 0.0, 1.7184676830760295E9, 0.0, 2024-06-15 11:08:03.076
106.0, 77223.69011922958, 62026.001456499274, 73113.4054795987, -187500.02235174447, 107661.53575915525, -187500.02235174447, -163716.93923675292, -187500.02235174447, -0.024, 0.972, 0.2, 192.0, 0.0, 0.0, 0.0, 0.0, 0.0, 0.0, 0.0, 0.0, 0.0, 1.7184676830760972E9, 0.0, 2024-06-15 11:08:03.076
107.0, 77169.4200836921, 60624.547079151525, 72302.23832157116, -187500.02235174447, 107834.71707519497, -187500.02235174447, -163948.61506803217, -187500.02235174447, -0.024, 0.972, 0.2, 192.0, 0.0, 0.0, 0.0, 0.0, 0.0, 0.0, 0.0, 0.0, 0.0, 1.718467683076115E9, 0.0, 2024-06-15 11:08:03.076
108.0, 77260.12346269173, 61533.83839533787, 72860.11551143117, -187500.02235174447, 107837.68985720753, -187500.02235174447, -163840.43262486847, -187500.02235174447, -0.024, 0.972, 0.2, 192.0, 0.0, 0.0, 0.0, 0.0, 0.0, 0.0, 0.0, 0.0, 0.0, 1.7184676830761263E9, 0.0, 2024-06-15 11:08:03.076
109.0, 77303.26232949046, 62985.78536341016, 73743.4564523049, -187500.02235174447, 107695.44335549395, -187500.02235174447, -163582.82877002106, -187500.02235174447, -0.024, 0.972, 0.2, 192.0, 0.0, 0.0, 0.0, 0.0, 0.0, 0.0, 0.0, 0.0, 0.0, 1.7184676830761378E9, 0.0, 2024-06-15 11:08:03.076
110.0, 77224.80770645234, 62292.61306436218, 73286.2962229605, -187500.02235174447, 107672.48811393835, -187500.02235174447, -163640.51862246022, -187500.02235174447, -0.024, 0.972, 0.2, 192.0, 0.0, 0.0, 0.0, 0.0, 0.0, 0.0, 0.0, 0.0, 0.0, 1.7184676830761485E9, 0.0, 2024-06-15 11:08:03.076
111.0, 77149.37056891568, 60719.36317913094, 72352.93207799579, -187500.02235174447, 107802.99994981289, -187500.02235174447, -163898.32364300772, -187500.02235174447, -0.026000000000000002, 0.966, 0.2, 192.0, 255.0, 48.0, 30.0, 48.0, 6.0, 64.0, 0.0, 0.0, 0.0, 1.7184676830761607E9, 0.0, 2024-06-15 11:08:03.076
112.0, 77213.90005515816, 61190.42619352653, 72671.82441613966, -187500.02235174447, 107894.06095672381, -187500.02235174447, -163842.39957838054, -187500.02235174447, -0.026000000000000002, 0.966, 0.2, 192.0, 0.0, 0.0, 0.0, 0.0, 0.0, 0.0, 0.0, 0.0, 0.0, 1.7184676830761704E9, 0.0, 2024-06-15 11:08:03.076
113.0, 77300.8930445782, 62854.357106012954, 73658.11749197454, -187500.02235174447, 107709.88258241209, -187500.02235174447, -163603.83940980906, -187500.02235174447, -0.026000000000000002, 0.966, 0.2, 192.0, 0.0, 0.0, 0.0, 0.0, 0.0, 0.0, 0.0, 0.0, 0.0, 1.718467683076196E9, 0.0, 2024-06-15 11:08:03.076
114.0, 77237.2352763695, 62548.00409650852, 73444.61362893744, -187500.02235174447, 107673.06925929419, -187500.02235174447, -163609.2708837117, -187500.02235174447, -0.026000000000000002, 0.966, 0.2, 192.0, 0.0, 0.0, 0.0, 0.0, 0.0, 0.0, 0.0, 0.0, 0.0, 1.718467683076205E9, 0.0, 2024-06-15 11:08:03.076
115.0, 77161.10523475471, 60926.29562929817, 72454.18548037834, -187500.02235174447, 107752.8873387441, -187500.02235174447, -163869.668706616, -187500.02235174447, -0.026000000000000002, 0.966, 0.2, 192.0, 0.0, 0.0, 0.0, 0.0, 0.0, 0.0, 0.0, 0.0, 0.0, 1.7184676830762143E9, 0.0, 2024-06-15 11:08:03.076
116.0, 77197.31506077231, 60938.365571304035, 72512.99292004024, -187500.02235174447, 107913.28345695538, -187500.02235174447, -163871.5239014058, -187500.02235174447, -0.026000000000000002, 0.966, 0.2, 192.0, 0.0, 0.0, 0.0, 0.0, 0.0, 0.0, 0.0, 0.0, 0.0, 1.7184676830762243E9, 0.0, 2024-06-15 11:08:03.076
