%OpenBCI Raw EXG Data
%Number of channels = 8
%Sample Rate = 250 Hz
%Board = OpenBCI_GUI$BoardCytonSerial
Sample Index, EXG Channel 0, EXG Channel 1, EXG Channel 2, EXG Channel 3, EXG Channel 4, EXG Channel 5, EXG Channel 6, EXG Channel 7, Accel Channel 0, Accel Channel 1, Accel Channel 2, Other, Other, Other, Other, Other, Other, Other, Analog Channel 0, Analog Channel 1, Analog Channel 2, Timestamp, Other, Timestamp (Formatted)
17.0, 43192.510985435365, -143474.1042225485, 91762.49405890633, -187500.02235174447, 91137.18165602467, -187500.02235174447, -187500.02235174447, -187500.02235174447, -0.052000000000000005, 0.936, -0.296, 192.0, 254.0, 96.0, 29.0, 64.0, 246.0, 192.0, 0.0, 0.0, 0.0, 1.7184669245866694E9, 0.0, 2024-06-15 10:55:24.586
18.0, 46050.49443846875, -138581.21795430398, 94002.42942600601, -187500.02235174447, 93210.1047885543, -187500.02235174447, -187500.02235174447, -187500.02235174447, -0.052000000000000005, 0.936, -0.296, 192.0, 0.0, 0.0, 0.0, 0.0, 0.0, 0.0, 0.0, 0.0, 0.0, 1.7184669245867083E9, 0.0, 2024-06-15 10:55:24.586
19.0, 49801.22891679155, -131506.5779097769, 96892.30881837712, -187500.02235174447, 95352.38538412875, -187500.02235174447, -187500.02235174447, -187500.02235174447, -0.052000000000000005, 0.936, -0.296, 192.0, 0.0, 0.0, 0.0, 0.0, 0.0, 0.0, 0.0, 0.0, 0.0, 1.7184669245867212E9, 0.0, 2024-06-15 10:55:24.586
20.0, 47624.3925242892, -134727.91132067578, 95065.61250276715, -187500.02235174447, 93603.92017411235, -187500.02235174447, -187500.02235174447, -187500.02235174447, -0.052000000000000005, 0.936, -0.296, 192.0, 0.0, 0.0, 0.0, 0.0, 0.0, 0.0, 0.0, 0.0, 0.0, 1.7184669245867326E9, 0.0, 2024-06-15 10:55:24.586
21.0, 43473.71828242759, -142894.23291614448, 91922.95723235098, -187500.02235174447, 91197.71018000963, -187500.02235174447, -187500.02235174447, -187500.02235174447, -0.052000000000000005, 0.936, -0.296, 192.0, 0.0, 0.0, 0.0, 0.0, 0.0, 0.0, 0.0, 0.0, 0.0, 1.7184669245867445E9, 0.0, 2024-06-15 10:55:24.586
22.0, 45256.53812367179, -140109.1608535243, 93343.276482019, -187500.02235174447, 92646.79612479164, -187500.02235174447, -187500.02235174447, -187500.02235174447, -0.052000000000000005, 0.936, -0.296, 192.0, 0.0, 0.0, 0.0, 0.0, 0.0, 0.0, 0.0, 0.0, 0.0, 1.7184669245867708E9, 0.0, 2024-06-15 10:55:24.586
23.0, 49596.37517885866, -132077.5755736322, 96700.97788583969, -187500.02235174447, 95230.5236733584, -187500.02235174447, -187500.02235174447, -187500.02235174447, -0.052000000000000005, 0.936, -0.296, 192.0, 0.0, 0.0, 0.0, 0.0, 0.0, 0.0, 0.0, 0.0, 0.0, 1.7184669245867832E9, 0.0, 2024-06-15 10:55:24.586
24.0, 48489.628552154136, -133299.6124982372, 95693.71887370573, -187500.02235174447, 94126.23573854397, -187500.02235174447, -187500.02235174447, -187500.02235174447, -0.052000000000000005, 0.936, -0.296, 192.0, 0.0, 0.0, 0.0, 0.0, 0.0, 0.0, 0.0, 0.0, 0.0, 1.7184669245867944E9, 0.0, 2024-06-15 10:55:24.586
25.0, 43974.129137293, -141859.50361007496, 92231.23249187857, -187500.02235174447, 91385.68835087876, -187500.02235174447, -187500.02235174447, -187500.02235174447, -0.052000000000000005, 0.936, -0.296, 192.0, 0.0, 0.0, 0.0, 0.0, 0.0, 0.0, 0.0, 0.0, 0.0, 1.718466924586805E9, 0.0, 2024-06-15 10:55:24.586
26.0, 44521.72452470357, -141484.91072474848, 92720.19925358288, -187500.02235174447, 92107.91791771865, -187500.02235174447, -187500.02235174447, -187500.02235174447, -0.052000000000000005, 0.936, -0.296, 192.0, 0.0, 0.0, 0.0, 0.0, 0.0, 0.0, 0.0, 0.0, 0.0, 1.718466924586816E9, 0.0, 2024-06-15 10:55:24.586
27.0, 49142.52300769365, -133034.56551248618, 96307.49777644846, -187500.02235174447, 94951.08216417817, -187500.02235174447, -187500.02235174447, -187500.02235174447, -0.044, 0.9420000000000001, -0.296, 192.0, 254.0, 160.0, 29.0, 112.0, 246.0, 192.0, 0.0, 0.0, 0.0, 1.718466924586826E9, 0.0, 2024-06-15 10:55:24.586
28.0, 49170.954426640805, -132225.54412192633, 96203.65157170911, -187500.02235174447, 94556.4174123308, -187500.02235174447, -187500.02235174447, -187500.02235174447, -0.044, 0.9420000000000001, -0.296, 192.0, 0.0, 0.0, 0.0, 0.0, 0.0, 0.0, 0.0, 0.0, 0.0, 1.7184669245868373E9, 0.0, 2024-06-15 10:55:24.586
29.0, 44664.529820028525, -140497.47770994637, 92705.69297143137, -187500.02235174447, 91700.06563664266, -187500.02235174447, -187500.02235174447, -187500.02235174447, -0.044, 0.9420000000000001, -0.296, 192.0, 0.0, 0.0, 0.0, 0.0, 0.0, 0.0, 0.0, 0.0, 0.0, 1.7184669245868497E9, 0.0, 2024-06-15 10:55:24.586
30.0, 43945.228331712286, -142556.27453998025, 92232.03715467897, -187500.02235174447, 91649.05895579564, -187500.02235174447, -187500.02235174447, -187500.02235174447, -0.044, 0.9420000000000001, -0.296, 192.0, 0.0, 0.0, 0.0, 0.0, 0.0, 0.0, 0.0, 0.0, 0.0, 1.7184669245868597E9, 0.0, 2024-06-15 10:55:24.586
31.0, 48499.955058092484, -134312.5488534628, 95776.26386597918, -187500.02235174447, 94543.49810403564, -187500.02235174447, -187500.02235174447, -187500.02235174447, -0.044, 0.9420000000000001, -0.296, 192.0, 0.0, 0.0, 0.0, 0.0, 0.0, 0.0, 0.0, 0.0, 0.0, 1.71846692458687E9, 0.0, 2024-06-15 10:55:24.586
32.0, 49688.777290436905, -131491.37872354733, 96598.85276542339, -187500.02235174447, 94901.90832637648, -187500.02235174447, -187500.02235174447, -187500.02235174447, -0.044, 0.9420000000000001, -0.296, 192.0, 0.0, 0.0, 0.0, 0.0, 0.0, 0.0, 0.0, 0.0, 0.0, 1.7184669245868804E9, 0.0, 2024-06-15 10:55:24.586
33.0, 45516.89124308721, -138862.20173385166, 93309.90532754724, -187500.02235174447, 92134.248272687, -187500.02235174447, -187500.02235174447, -187500.02235174447, -0.044, 0.9420000000000001, -0.296, 192.0, 0.0, 0.0, 0.0, 0.0, 0.0, 0.0, 0.0, 0.0, 0.0, 1.7184669245868905E9, 0.0, 2024-06-15 10:55:24.586
34.0, 43582.2360017581, -143210.77832112054, 91923.69483991801, -187500.02235174447, 91330.4124868408, -187500.02235174447, -187500.02235174447, -187500.02235174447, -0.044, 0.9420000000000001, -0.296, 192.0, 0.0, 0.0, 0.0, 0.0, 0.0, 0.0, 0.0, 0.0, 0.0, 1.7184669245869007E9, 0.0, 2024-06-15 10:55:24.586
35.0, 47771.154078382744, -135769.5920192709, 95194.64912350764, -187500.02235174447, 94096.15029050712, -187500.02235174447, -187500.02235174447, -187500.02235174447, -0.044, 0.9420000000000001, -0.296, 192.0, 0.0, 0.0, 0.0, 0.0, 0.0, 0.0, 0.0, 0.0, 0.0, 1.7184669245869105E9, 0.0, 2024-06-15 10:55:24.586
36.0, 50023.51701539958, -131121.27853885634, 96855.20492258131, -187500.02235174447, 95158.72987016797, -187500.02235174447, -187500.02235174447, -187500.02235174447, -0.044, 0.9420000000000001, -0.296, 192.0, 0.0, 0.0, 0.0, 0.0, 0.0, 0.0, 0.0, 0.0, 0.0, 1.7184669245869205E9, 0.0, 2024-06-15 10:55:24.586
37.0, 46411.966849799974, -137158.66353019042, 93939.9786519979, -187500.02235174447, 92629.5629298166, -187500.02235174447, -187500.02235174447, -187500.02235174447, -0.04, 0.9420000000000001, -0.298, 192.0, 254.0, 192.0, 29.0, 112.0, 246.0, 176.0, 0.0, 0.0, 0.0, 1.7184669245869355E9, 0.0, 2024-06-15 10:55:24.586
38.0, 43473.1594888162, -143344.2405872632, 91792.53480345427, -187500.02235174447, 91156.80648765642, -187500.02235174447, -187500.02235174447, -187500.02235174447, -0.04, 0.9420000000000001, -0.298, 192.0, 0.0, 0.0, 0.0, 0.0, 0.0, 0.0, 0.0, 0.0, 0.0, 1.7184669245869455E9, 0.0, 2024-06-15 10:55:24.586
39.0, 46969.799336171076, -137320.62427051357, 94551.812952973, -187500.02235174447, 93590.97851407272, -187500.02235174447, -187500.02235174447, -187500.02235174447, -0.04, 0.9420000000000001, -0.298, 192.0, 0.0, 0.0, 0.0, 0.0, 0.0, 0.0, 0.0, 0.0, 0.0, 1.7184669245869596E9, 0.0, 2024-06-15 10:55:24.586
40.0, 50160.62261588843, -131124.31837610225, 96966.22603729082, -187500.02235174447, 95306.58665973981, -187500.02235174447, -187500.02235174447, -187500.02235174447, -0.04, 0.9420000000000001, -0.298, 192.0, 0.0, 0.0, 0.0, 0.0, 0.0, 0.0, 0.0, 0.0, 0.0, 1.7184669245869696E9, 0.0, 2024-06-15 10:55:24.586
41.0, 47354.47285824691, -135492.0727601138, 94627.25009050967, -187500.02235174447, 93181.98629402951, -187500.02235174447, -187500.02235174447, -187500.02235174447, -0.04, 0.9420000000000001, -0.298, 192.0, 0.0, 0.0, 0.0, 0.0, 0.0, 0.0, 0.0, 0.0, 0.0, 1.7184669245869796E9, 0.0, 2024-06-15 10:55:24.586
42.0, 43626.15717961278, -143033.95367073463, 91827.4705800379, -187500.02235174447, 91114.69580110261, -187500.02235174447, -187500.02235174447, -187500.02235174447, -0.04, 0.9420000000000001, -0.298, 192.0, 0.0, 0.0, 0.0, 0.0, 0.0, 0.0, 0.0, 0.0, 0.0, 1.7184669245869892E9, 0.0, 2024-06-15 10:55:24.586
43.0, 46178.681692919934, -138912.15788270926, 93856.29372075722, -187500.02235174447, 93023.78064677486, -187500.02235174447, -187500.02235174447, -187500.02235174447, -0.04, 0.9420000000000001, -0.298, 192.0, 0.0, 0.0, 0.0, 0.0, 0.0, 0.0, 0.0, 0.0, 0.0, 1.7184669245869992E9, 0.0, 2024-06-15 10:55:24.586
44.0, 50137.667374332836, -131499.80533120697, 96888.6654840309, -187500.02235174447, 95292.8403368998, -187500.02235174447, -187500.02235174447, -187500.02235174447, -0.04, 0.9420000000000001, -0.298, 192.0, 0.0, 0.0, 0.0, 0.0, 0.0, 0.0, 0.0, 0.0, 0.0, 1.7184669245870087E9, 0.0, 2024-06-15 10:55:24.587
45.0, 48344.632785872556, -133924.88019762997, 95314.4544737881, -187500.02235174447, 93743.28330079118, -187500.02235174447, -187500.02235174447, -187500.02235174447, -0.04, 0.9420000000000001, -0.298, 192.0, 0.0, 0.0, 0.0, 0.0, 0.0, 0.0, 0.0, 0.0, 0.0, 1.7184669245870187E9, 0.0, 2024-06-15 10:55:24.587
46.0, 44069.97341751736, -142218.83025393847, 92046.31650999982, -187500.02235174447, 91219.0784477089, -187500.02235174447, -187500.02235174447, -187500.02235174447, -0.04, 0.9420000000000001, -0.298, 192.0, 0.0, 0.0, 0.0, 0.0, 0.0, 0.0, 0.0, 0.0, 0.0, 1.7184669245870285E9, 0.0, 2024-06-15 10:55:24.587
47.0, 45432.40164904614, -140414.79860720618, 93189.63059063323, -187500.02235174447, 92464.60705573643, -187500.02235174447, -187500.02235174447, -187500.02235174447, -0.042, 0.9420000000000001, -0.298, 192.0, 254.0, 176.0, 29.0, 112.0, 246.0, 176.0, 0.0, 0.0, 0.0, 1.7184669245870385E9, 0.0, 2024-06-15 10:55:24.587
48.0, 49852.30265287193, -132314.03467822488, 96622.03152442355, -187500.02235174447, 95136.1546082681, -187500.02235174447, -187500.02235174447, -187500.02235174447, -0.042, 0.9420000000000001, -0.298, 192.0, 0.0, 0.0, 0.0, 0.0, 0.0, 0.0, 0.0, 0.0, 0.0, 1.7184669245870483E9, 0.0, 2024-06-15 10:55:24.587
49.0, 49141.22660651524, -132725.1279622469, 95884.20043995386, -187500.02235174447, 94233.74762937399, -187500.02235174447, -187500.02235174447, -187500.02235174447, -0.042, 0.9420000000000001, -0.298, 192.0, 0.0, 0.0, 0.0, 0.0, 0.0, 0.0, 0.0, 0.0, 0.0, 1.7184669245870583E9, 0.0, 2024-06-15 10:55:24.587
50.0, 44680.15368940278, -141056.85246668488, 92414.3603342009, -187500.02235174447, 91454.57642729003, -187500.02235174447, -187500.02235174447, -187500.02235174447, -0.042, 0.9420000000000001, -0.298, 192.0, 0.0, 0.0, 0.0, 0.0, 0.0, 0.0, 0.0, 0.0, 0.0, 1.718466924587068E9, 0.0, 2024-06-15 10:55:24.587
51.0, 44874.055072552575, -141580.75500497283, 92690.65024741295, -187500.02235174447, 92020.09791375375, -187500.02235174447, -187500.02235174447, -187500.02235174447, -0.042, 0.9420000000000001, -0.298, 192.0, 0.0, 0.0, 0.0, 0.0, 0.0, 0.0, 0.0, 0.0, 0.0, 1.718466924587078E9, 0.0, 2024-06-15 10:55:24.587
52.0, 49458.129639402585, -133317.09156240124, 96267.10817421773, -187500.02235174447, 94901.77421590975, -187500.02235174447, -187500.02235174447, -187500.02235174447, -0.042, 0.9420000000000001, -0.298, 192.0, 0.0, 0.0, 0.0, 0.0, 0.0, 0.0, 0.0, 0.0, 0.0, 1.718466924587088E9, 0.0, 2024-06-15 10:55:24.587
53.0, 49843.67487951218, -131754.16818310836, 96381.14677442871, -187500.02235174447, 94685.99047493821, -187500.02235174447, -187500.02235174447, -187500.02235174447, -0.042, 0.9420000000000001, -0.298, 192.0, 0.0, 0.0, 0.0, 0.0, 0.0, 0.0, 0.0, 0.0, 0.0, 1.718466924587098E9, 0.0, 2024-06-15 10:55:24.587
54.0, 45497.86990855574, -139551.75305029788, 92931.80321834126, -187500.02235174447, 91835.89718769756, -187500.02235174447, -187500.02235174447, -187500.02235174447, -0.042, 0.9420000000000001, -0.298, 192.0, 0.0, 0.0, 0.0, 0.0, 0.0, 0.0, 0.0, 0.0, 0.0, 1.718466924587108E9, 0.0, 2024-06-15 10:55:24.587
55.0, 44416.917194952635, -142469.9297511494, 92240.55316931644, -187500.02235174447, 91619.24172869227, -187500.02235174447, -187500.02235174447, -187500.02235174447, -0.042, 0.9420000000000001, -0.298, 192.0, 0.0, 0.0, 0.0, 0.0, 0.0, 0.0, 0.0, 0.0, 0.0, 1.7184669245871177E9, 0.0, 2024-06-15 10:55:24.587
56.0, 48832.459608609635, -134611.6822495082, 95705.65470524487, -187500.02235174447, 94501.63328667084, -187500.02235174447, -187500.02235174447, -187500.02235174447, -0.042, 0.9420000000000001, -0.298, 192.0, 0.0, 0.0, 0.0, 0.0, 0.0, 0.0, 0.0, 0.0, 0.0, 1.718466924587128E9, 0.0, 2024-06-15 10:55:24.587
57.0, 50327.746609180766, -131141.84214375523, 96716.89232789187, -187500.02235174447, 95026.07226682571, -187500.02235174447, -187500.02235174447, -187500.02235174447, -0.042, 0.9420000000000001, -0.298, 192.0, 0.0, 0.0, 0.0, 0.0, 0.0, 0.0, 0.0, 0.0, 0.0, 1.7184669245871377E9, 0.0, 2024-06-15 10:55:24.587
58.0, 46374.08064294823, -137887.15158547778, 93501.77270195159, -187500.02235174447, 92276.36066393384, -187500.02235174447, -187500.02235174447, -187500.02235174447, -0.056, 0.9460000000000001, -0.3, 192.0, 254.0, 64.0, 29.0, 144.0, 246.0, 160.0, 0.0, 0.0, 0.0, 1.7184669245871477E9, 0.0, 2024-06-15 10:55:24.587
59.0, 44215.37151519913, -142805.8541185682, 91975.55088705431, -187500.02235174447, 91346.03635621505, -187500.02235174447, -187500.02235174447, -187500.02235174447, -0.056, 0.9460000000000001, -0.3, 192.0, 0.0, 0.0, 0.0, 0.0, 0.0, 0.0, 0.0, 0.0, 0.0, 1.7184669245871575E9, 0.0, 2024-06-15 10:55:24.587
60.0, 48159.42623131588, -136059.5164966007, 95145.4082304726, -187500.02235174447, 94094.69742711753, -187500.02235174447, -187500.02235174447, -187500.02235174447, -0.056, 0.9460000000000001, -0.3, 192.0, 0.0, 0.0, 0.0, 0.0, 0.0, 0.0, 0.0, 0.0, 0.0, 1.7184669245871692E9, 0.0, 2024-06-15 10:55:24.587
61.0, 50643.867331012174, -130963.38581602405, 96957.82178137562, -187500.02235174447, 95304.88792716121, -187500.02235174447, -187500.02235174447, -187500.02235174447, -0.056, 0.9460000000000001, -0.3, 192.0, 0.0, 0.0, 0.0, 0.0, 0.0, 0.0, 0.0, 0.0, 0.0, 1.7184669245871792E9, 0.0, 2024-06-15 10:55:24.587
62.0, 47311.021067025795, -136308.89490948856, 94159.62924476019, -187500.02235174447, 92824.20192053342, -187500.02235174447, -187500.02235174447, -187500.02235174447, -0.056, 0.9460000000000001, -0.3, 192.0, 0.0, 0.0, 0.0, 0.0, 0.0, 0.0, 0.0, 0.0, 0.0, 1.7184669245871892E9, 0.0, 2024-06-15 10:55:24.587
63.0, 44163.560171551726, -142874.89865719064, 91814.55127174273, -187500.02235174447, 91162.93086563717, -187500.02235174447, -187500.02235174447, -187500.02235174447, -0.056, 0.9460000000000001, -0.3, 192.0, 0.0, 0.0, 0.0, 0.0, 0.0, 0.0, 0.0, 0.0, 0.0, 1.7184669245871987E9, 0.0, 2024-06-15 10:55:24.587
64.0, 47388.78278598581, -137518.12428452066, 94433.97455620463, -187500.02235174447, 93537.06610644652, -187500.02235174447, -187500.02235174447, -187500.02235174447, -0.056, 0.9460000000000001, -0.3, 192.0, 0.0, 0.0, 0.0, 0.0, 0.0, 0.0, 0.0, 0.0, 0.0, 1.7184669245872087E9, 0.0, 2024-06-15 10:55:24.587
65.0, 50801.022446277435, -130922.37036494857, 97045.82059929617, -187500.02235174447, 95446.17330386321, -187500.02235174447, -187500.02235174447, -187500.02235174447, -0.056, 0.9460000000000001, -0.3, 192.0, 0.0, 0.0, 0.0, 0.0, 0.0, 0.0, 0.0, 0.0, 0.0, 1.7184669245872188E9, 0.0, 2024-06-15 10:55:24.587
66.0, 48283.61252350957, -134647.7803168035, 94876.67320688644, -187500.02235174447, 93426.51437837057, -187500.02235174447, -187500.02235174447, -187500.02235174447, -0.056, 0.9460000000000001, -0.3, 192.0, 0.0, 0.0, 0.0, 0.0, 0.0, 0.0, 0.0, 0.0, 0.0, 1.7184669245872288E9, 0.0, 2024-06-15 10:55:24.587
67.0, 44389.46925276152, -142406.22727945176, 91906.81927285425, -187500.02235174447, 91178.97941815609, -187500.02235174447, -187500.02235174447, -187500.02235174447, -0.056, 0.9460000000000001, -0.3, 192.0, 0.0, 0.0, 0.0, 0.0, 0.0, 0.0, 0.0, 0.0, 0.0, 1.7184669245872386E9, 0.0, 2024-06-15 10:55:24.587
68.0, 46591.00432288698, -139009.94676470122, 93755.64381547498, -187500.02235174447, 92988.26372483537, -187500.02235174447, -187500.02235174447, -187500.02235174447, -0.074, 0.936, -0.308, 192.0, 253.0, 176.0, 29.0, 64.0, 246.0, 96.0, 0.0, 0.0, 0.0, 1.7184669245872483E9, 0.0, 2024-06-15 10:55:24.587
69.0, 50639.86636875467, -131372.73566397856, 96921.6790105914, -187500.02235174447, 95417.8759953828, -187500.02235174447, -187500.02235174447, -187500.02235174447, -0.074, 0.936, -0.308, 192.0, 0.0, 0.0, 0.0, 0.0, 0.0, 0.0, 0.0, 0.0, 0.0, 1.7184669245872583E9, 0.0, 2024-06-15 10:55:24.587
70.0, 49127.10030401949, -133180.96943866843, 95535.11089505088, -187500.02235174447, 93997.35558001466, -187500.02235174447, -187500.02235174447, -187500.02235174447, -0.074, 0.936, -0.308, 192.0, 0.0, 0.0, 0.0, 0.0, 0.0, 0.0, 0.0, 0.0, 0.0, 1.718466924587268E9, 0.0, 2024-06-15 10:55:24.587
71.0, 44817.46045559174, -141403.3715609755, 92158.87989507675, -187500.02235174447, 91328.73610600665, -187500.02235174447, -187500.02235174447, -187500.02235174447, -0.074, 0.936, -0.308, 192.0, 0.0, 0.0, 0.0, 0.0, 0.0, 0.0, 0.0, 0.0, 0.0, 1.7184669245872784E9, 0.0, 2024-06-15 10:55:24.587
72.0, 45842.578511545486, -140363.4342984479, 93124.83288345729, -187500.02235174447, 92461.29899755705, -187500.02235174447, -187500.02235174447, -187500.02235174447, -0.074, 0.936, -0.308, 192.0, 0.0, 0.0, 0.0, 0.0, 0.0, 0.0, 0.0, 0.0, 0.0, 1.7184669245872884E9, 0.0, 2024-06-15 10:55:24.587
73.0, 50264.826448539075, -132276.70726498452, 96639.33177463195, -187500.02235174447, 95272.14262153419, -187500.02235174447, -187500.02235174447, -187500.02235174447, -0.074, 0.936, -0.308, 192.0, 0.0, 0.0, 0.0, 0.0, 0.0, 0.0, 0.0, 0.0, 0.0, 1.7184669245872984E9, 0.0, 2024-06-15 10:55:24.587
74.0, 49839.58451027686, -132038.43766909096, 96067.9317793765, -187500.02235174447, 94487.26111498609, -187500.02235174447, -187500.02235174447, -187500.02235174447, -0.074, 0.936, -0.308, 192.0, 0.0, 0.0, 0.0, 0.0, 0.0, 0.0, 0.0, 0.0, 0.0, 1.7184669245873082E9, 0.0, 2024-06-15 10:55:24.587
75.0, 45449.32191959881, -139842.7504113615, 92478.44278555427, -187500.02235174447, 91524.71620139078, -187500.02235174447, -187500.02235174447, -187500.02235174447, -0.074, 0.936, -0.308, 192.0, 0.0, 0.0, 0.0, 0.0, 0.0, 0.0, 0.0, 0.0, 0.0, 1.7184669245873182E9, 0.0, 2024-06-15 10:55:24.587
76.0, 45301.6439439826, -141224.95993673324, 92655.60271210704, -187500.02235174447, 92037.30875698433, -187500.02235174447, -187500.02235174447, -187500.02235174447, -0.074, 0.936, -0.308, 192.0, 0.0, 0.0, 0.0, 0.0, 0.0, 0.0, 0.0, 0.0, 0.0, 1.7184669245873313E9, 0.0, 2024-06-15 10:55:24.587
77.0, 49665.8220488813, -133750.06720424502, 96308.79417762687, -187500.02235174447, 95102.09054971821, -187500.02235174447, -187500.02235174447, -187500.02235174447, -0.074, 0.936, -0.308, 192.0, 0.0, 0.0, 0.0, 0.0, 0.0, 0.0, 0.0, 0.0, 0.0, 1.7184669245873413E9, 0.0, 2024-06-15 10:55:24.587
78.0, 50221.88874744043, -131664.24711516465, 96436.78026637796, -187500.02235174447, 94889.1454802925, -187500.02235174447, -187500.02235174447, -187500.02235174447, -0.092, 0.924, -0.304, 192.0, 253.0, 32.0, 28.0, 224.0, 246.0, 128.0, 0.0, 0.0, 0.0, 1.7184669245873516E9, 0.0, 2024-06-15 10:55:24.587
79.0, 46131.47480863033, -138233.89419721297, 92842.6197579646, -187500.02235174447, 91780.93424808196, -187500.02235174447, -187500.02235174447, -187500.02235174447, -0.092, 0.924, -0.304, 192.0, 0.0, 0.0, 0.0, 0.0, 0.0, 0.0, 0.0, 0.0, 0.0, 1.7184669245873616E9, 0.0, 2024-06-15 10:55:24.587
80.0, 44978.88475404796, -141472.95254146488, 92277.9252860457, -187500.02235174447, 91645.50502842726, -187500.02235174447, -187500.02235174447, -187500.02235174447, -0.092, 0.924, -0.304, 192.0, 0.0, 0.0, 0.0, 0.0, 0.0, 0.0, 0.0, 0.0, 0.0, 1.7184669245873716E9, 0.0, 2024-06-15 10:55:24.587
81.0, 49015.94507884325, -135297.97021126392, 95978.904781211, -187500.02235174447, 94903.89763163301, -187500.02235174447, -187500.02235174447, -187500.02235174447, -0.092, 0.924, -0.304, 192.0, 0.0, 0.0, 0.0, 0.0, 0.0, 0.0, 0.0, 0.0, 0.0, 1.7184669245873897E9, 0.0, 2024-06-15 10:55:24.587
82.0, 50389.14685119949, -132102.09543729966, 96842.24091079723, -187500.02235174447, 95354.97818648556, -187500.02235174447, -187500.02235174447, -187500.02235174447, -0.092, 0.924, -0.304, 192.0, 0.0, 0.0, 0.0, 0.0, 0.0, 0.0, 0.0, 0.0, 0.0, 1.7184669245874E9, 0.0, 2024-06-15 10:55:24.587
83.0, 46640.37932638876, -137035.21484556375, 93102.45878725754, -187500.02235174447, 91988.9619337275, -187500.02235174447, -187500.02235174447, -187500.02235174447, -0.092, 0.924, -0.304, 192.0, 0.0, 0.0, 0.0, 0.0, 0.0, 0.0, 0.0, 0.0, 0.0, 1.71846692458741E9, 0.0, 2024-06-15 10:55:24.587
84.0, 44889.72364541575, -140353.55482739865, 91683.03360736772, -187500.02235174447, 90970.90702902163, -187500.02235174447, -187500.02235174447, -187500.02235174447, -0.092, 0.924, -0.304, 192.0, 0.0, 0.0, 0.0, 0.0, 0.0, 0.0, 0.0, 0.0, 0.0, 1.71846692458742E9, 0.0, 2024-06-15 10:55:24.587
85.0, 48755.10022104981, -135225.08117259518, 95668.72962340471, -187500.02235174447, 94576.0198922181, -187500.02235174447, -187500.02235174447, -187500.02235174447, -0.092, 0.924, -0.304, 192.0, 0.0, 0.0, 0.0, 0.0, 0.0, 0.0, 0.0, 0.0, 0.0, 1.7184669245874307E9, 0.0, 2024-06-15 10:55:24.587
86.0, 50807.99619054749, -131734.56570322104, 97445.87212155726, -187500.02235174447, 95932.21198704386, -187500.02235174447, -187500.02235174447, -187500.02235174447, -0.092, 0.924, -0.304, 192.0, 0.0, 0.0, 0.0, 0.0, 0.0, 0.0, 0.0, 0.0, 0.0, 1.7184669245874407E9, 0.0, 2024-06-15 10:55:24.587
87.0, 47431.80989406227, -135908.70927676075, 93926.58995706915, -187500.02235174447, 92735.82312295712, -187500.02235174447, -187500.02235174447, -187500.02235174447, -0.092, 0.924, -0.304, 192.0, 0.0, 0.0, 0.0, 0.0, 0.0, 0.0, 0.0, 0.0, 0.0, 1.7184669245874512E9, 0.0, 2024-06-15 10:55:24.587
88.0, 44672.97877943263, -140457.06575597118, 91408.15185405634, -187500.02235174447, 90716.92415677597, -187500.02235174447, -187500.02235174447, -187500.02235174447, -0.094, 0.916, -0.302, 192.0, 253.0, 16.0, 28.0, 160.0, 246.0, 144.0, 0.0, 0.0, 0.0, 1.718466924587461E9, 0.0, 2024-06-15 10:55:24.587
89.0, 47908.23732712714, -136425.79453298982, 94856.95896827686, -187500.02235174447, 93908.17211963798, -187500.02235174447, -187500.02235174447, -187500.02235174447, -0.094, 0.916, -0.302, 192.0, 0.0, 0.0, 0.0, 0.0, 0.0, 0.0, 0.0, 0.0, 0.0, 1.7184669245874708E9, 0.0, 2024-06-15 10:55:24.587
90.0, 50826.16815878966, -131876.00754213423, 97547.39374487326, -187500.02235174447, 96093.41276805554, -187500.02235174447, -187500.02235174447, -187500.02235174447, -0.094, 0.916, -0.302, 192.0, 0.0, 0.0, 0.0, 0.0, 0.0, 0.0, 0.0, 0.0, 0.0, 1.7184669245874808E9, 0.0, 2024-06-15 10:55:24.587
91.0, 48197.93828701237, -134835.04323185005, 94707.76107403768, -187500.02235174447, 93448.97788154815, -187500.02235174447, -187500.02235174447, -187500.02235174447, -0.094, 0.916, -0.302, 192.0, 0.0, 0.0, 0.0, 0.0, 0.0, 0.0, 0.0, 0.0, 0.0, 1.7184669245874913E9, 0.0, 2024-06-15 10:55:24.587
92.0, 44692.71536978667, -140233.3024422291, 91373.57370538398, -187500.02235174447, 90661.26831308226, -187500.02235174447, -187500.02235174447, -187500.02235174447, -0.094, 0.916, -0.302, 192.0, 0.0, 0.0, 0.0, 0.0, 0.0, 0.0, 0.0, 0.0, 0.0, 1.7184669245875013E9, 0.0, 2024-06-15 10:55:24.587
93.0, 47039.603834105, -137600.06577969383, 94001.20008006098, -187500.02235174447, 93176.8900962937, -187500.02235174447, -187500.02235174447, -187500.02235174447, -0.094, 0.916, -0.302, 192.0, 0.0, 0.0, 0.0, 0.0, 0.0, 0.0, 0.0, 0.0, 0.0, 1.7184669245875113E9, 0.0, 2024-06-15 10:55:24.587
94.0, 50653.63504333914, -132254.7131484405, 97458.67967113014, -187500.02235174447, 96078.97354113741, -187500.02235174447, -187500.02235174447, -187500.02235174447, -0.094, 0.916, -0.302, 192.0, 0.0, 0.0, 0.0, 0.0, 0.0, 0.0, 0.0, 0.0, 0.0, 1.7184669245875213E9, 0.0, 2024-06-15 10:55:24.587
95.0, 48936.3505168379, -133853.3993188619, 95476.52697283351, -187500.02235174447, 94149.59331149976, -187500.02235174447, -187500.02235174447, -187500.02235174447, -0.094, 0.916, -0.302, 192.0, 0.0, 0.0, 0.0, 0.0, 0.0, 0.0, 0.0, 0.0, 0.0, 1.718466924587531E9, 0.0, 2024-06-15 10:55:24.587
96.0, 44930.49322730222, -139699.34161893628, 91565.0163966437, -187500.02235174447, 90796.20579435895, -187500.02235174447, -187500.02235174447, -187500.02235174447, -0.094, 0.916, -0.302, 192.0, 0.0, 0.0, 0.0, 0.0, 0.0, 0.0, 0.0, 0.0, 0.0, 1.718466924587541E9, 0.0, 2024-06-15 10:55:24.587
97.0, 46214.355077070606, -138674.3353217048, 93165.22248568803, -187500.02235174447, 92432.8675786099, -187500.02235174447, -187500.02235174447, -187500.02235174447, -0.094, 0.916, -0.302, 192.0, 0.0, 0.0, 0.0, 0.0, 0.0, 0.0, 0.0, 0.0, 0.0, 1.7184669245875509E9, 0.0, 2024-06-15 10:55:24.587
98.0, 50287.133489505475, -132889.18976654887, 97167.41408913305, -187500.02235174447, 95870.16354443593, -187500.02235174447, -187500.02235174447, -187500.02235174447, -0.094, 0.916, -0.302, 192.0, 0.0, 0.0, 0.0, 0.0, 0.0, 0.0, 0.0, 0.0, 0.0, 1.7184669245875611E9, 0.0, 2024-06-15 10:55:24.587
99.0, 49586.495707809416, -133073.74812051633, 96165.72066136845, -187500.02235174447, 94780.29248479515, -187500.02235174447, -187500.02235174447, -187500.02235174447, -0.078, 0.93, -0.304, 192.0, 253.0, 144.0, 29.0, 16.0, 246.0, 128.0, 0.0, 0.0, 0.0, 1.7184669245875711E9, 0.0, 2024-06-15 10:55:24.587
100.0, 45412.10626508072, -138911.75555130906, 91983.64221854713, -187500.02235174447, 91129.42560069867, -187500.02235174447, -187500.02235174447, -187500.02235174447, -0.078, 0.93, -0.304, 192.0, 0.0, 0.0, 0.0, 0.0, 0.0, 0.0, 0.0, 0.0, 0.0, 1.7184669245875812E9, 0.0, 2024-06-15 10:55:24.587
101.0, 45581.84541247433, -139514.85032020215, 92456.2698550546, -187500.02235174447, 91783.32588473868, -187500.02235174447, -187500.02235174447, -187500.02235174447, -0.078, 0.93, -0.304, 192.0, 0.0, 0.0, 0.0, 0.0, 0.0, 0.0, 0.0, 0.0, 0.0, 1.7184669245875916E9, 0.0, 2024-06-15 10:55:24.587
102.0, 49816.361047787796, -133693.76315996208, 96706.7222841647, -187500.02235174447, 95505.80775806998, -187500.02235174447, -187500.02235174447, -187500.02235174447, -0.078, 0.93, -0.304, 192.0, 0.0, 0.0, 0.0, 0.0, 0.0, 0.0, 0.0, 0.0, 0.0, 1.7184669245876017E9, 0.0, 2024-06-15 10:55:24.587
103.0, 50139.50021737817, -132485.9195930862, 96726.41417102983, -187500.02235174447, 95302.0939591043, -187500.02235174447, -187500.02235174447, -187500.02235174447, -0.078, 0.93, -0.304, 192.0, 0.0, 0.0, 0.0, 0.0, 0.0, 0.0, 0.0, 0.0, 0.0, 1.7184669245876133E9, 0.0, 2024-06-15 10:55:24.587
104.0, 46042.648976164935, -137956.5090485226, 92546.21327474277, -187500.02235174447, 91599.19221391586, -187500.02235174447, -187500.02235174447, -187500.02235174447, -0.078, 0.93, -0.304, 192.0, 0.0, 0.0, 0.0, 0.0, 0.0, 0.0, 0.0, 0.0, 0.0, 1.718466924587624E9, 0.0, 2024-06-15 10:55:24.587
105.0, 45063.374348089026, -140155.40661280236, 91850.71639427143, -187500.02235174447, 91213.40110461725, -187500.02235174447, -187500.02235174447, -187500.02235174447, -0.078, 0.93, -0.304, 192.0, 0.0, 0.0, 0.0, 0.0, 0.0, 0.0, 0.0, 0.0, 0.0, 1.7184669245876336E9, 0.0, 2024-06-15 10:55:24.587
106.0, 49171.04383361863, -134703.81614015295, 96082.95215165045, -187500.02235174447, 94979.55828661422, -187500.02235174447, -187500.02235174447, -187500.02235174447, -0.078, 0.93, -0.304, 192.0, 0.0, 0.0, 0.0, 0.0, 0.0, 0.0, 0.0, 0.0, 0.0, 1.7184669245876436E9, 0.0, 2024-06-15 10:55:24.587
107.0, 50539.10470475015, -132132.40440278107, 97169.69396706748, -187500.02235174447, 95712.5390425371, -187500.02235174447, -187500.02235174447, -187500.02235174447, -0.078, 0.93, -0.304, 192.0, 0.0, 0.0, 0.0, 0.0, 0.0, 0.0, 0.0, 0.0, 0.0, 1.7184669245876536E9, 0.0, 2024-06-15 10:55:24.587
108.0, 46783.7434153251, -136881.5018989446, 93263.19018163564, -187500.02235174447, 92196.16260482819, -187500.02235174447, -187500.02235174447, -187500.02235174447, -0.078, 0.93, -0.304, 192.0, 0.0, 0.0, 0.0, 0.0, 0.0, 0.0, 0.0, 0.0, 0.0, 1.718466924587664E9, 0.0, 2024-06-15 10:55:24.587
109.0, 44737.82119009748, -140476.77999458075, 91451.35777608845, -187500.02235174447, 90799.8267769607, -187500.02235174447, -187500.02235174447, -187500.02235174447, -0.066, 0.934, -0.304, 192.0, 253.0, 240.0, 29.0, 48.0, 246.0, 128.0, 0.0, 0.0, 0.0, 1.718466924587674E9, 0.0, 2024-06-15 10:55:24.587
110.0, 48381.80373690173, -135831.37224094538, 95318.12015987876, -187500.02235174447, 94315.48795884705, -187500.02235174447, -187500.02235174447, -187500.02235174447, -0.066, 0.934, -0.304, 192.0, 0.0, 0.0, 0.0, 0.0, 0.0, 0.0, 0.0, 0.0, 0.0, 1.718466924587684E9, 0.0, 2024-06-15 10:55:24.587
111.0, 50679.093680273734, -132092.4841871839, 97392.80908022035, -187500.02235174447, 95943.47726624933, -187500.02235174447, -187500.02235174447, -187500.02235174447, -0.066, 0.934, -0.304, 192.0, 0.0, 0.0, 0.0, 0.0, 0.0, 0.0, 0.0, 0.0, 0.0, 1.7184669245876973E9, 0.0, 2024-06-15 10:55:24.587
112.0, 47576.380977199195, -135767.62506575885, 94076.16783096407, -187500.02235174447, 92897.672104558, -187500.02235174447, -187500.02235174447, -187500.02235174447, -0.066, 0.934, -0.304, 192.0, 0.0, 0.0, 0.0, 0.0, 0.0, 0.0, 0.0, 0.0, 0.0, 1.7184669245877073E9, 0.0, 2024-06-15 10:55:24.587
113.0, 44633.55030221347, -140460.23970368382, 91289.91112588777, -187500.02235174447, 90600.5386233972, -187500.02235174447, -187500.02235174447, -187500.02235174447, -0.066, 0.934, -0.304, 192.0, 0.0, 0.0, 0.0, 0.0, 0.0, 0.0, 0.0, 0.0, 0.0, 1.7184669245877173E9, 0.0, 2024-06-15 10:55:24.587
114.0, 47560.84651480276, -136970.17126919882, 94494.9054115898, -187500.02235174447, 93589.14567102739, -187500.02235174447, -187500.02235174447, -187500.02235174447, -0.066, 0.934, -0.304, 192.0, 0.0, 0.0, 0.0, 0.0, 0.0, 0.0, 0.0, 0.0, 0.0, 1.7184669245877273E9, 0.0, 2024-06-15 10:55:24.587
115.0, 50692.392968224645, -132243.91725586858, 97469.54261893543, -187500.02235174447, 96042.11551453061, -187500.02235174447, -187500.02235174447, -187500.02235174447, -0.066, 0.934, -0.304, 192.0, 0.0, 0.0, 0.0, 0.0, 0.0, 0.0, 0.0, 0.0, 0.0, 1.718466924587737E9, 0.0, 2024-06-15 10:55:24.587
116.0, 48378.920361867, -134704.93372737573, 94897.97441935235, -187500.02235174447, 93613.86670039495, -187500.02235174447, -187500.02235174447, -187500.02235174447, -0.066, 0.934, -0.304, 192.0, 0.0, 0.0, 0.0, 0.0, 0.0, 0.0, 0.0, 0.0, 0.0, 1.7184669245877473E9, 0.0, 2024-06-15 10:55:24.587
117.0, 44764.79974565503, -140118.2803652621, 91352.04897547353, -187500.02235174447, 90598.6834286074, -187500.02235174447, -187500.02235174447, -187500.02235174447, -0.066, 0.934, -0.304, 192.0, 0.0, 0.0, 0.0, 0.0, 0.0, 0.0, 0.0, 0.0, 0.0, 1.7184669245877576E9, 0.0, 2024-06-15 10:55:24.587
118.0, 46777.820203044444, -138037.6235291509, 93665.49923008672, -187500.02235174447, 92841.6139294641, -187500.02235174447, -187500.02235174447, -187500.02235174447, -0.066, 0.934, -0.304, 192.0, 0.0, 0.0, 0.0, 0.0, 0.0, 0.0, 0.0, 0.0, 0.0, 1.7184669245877676E9, 0.0, 2024-06-15 10:55:24.587
119.0, 50511.94733523695, -132659.88322018186, 97323.42926543108, -187500.02235174447, 95950.42865877494, -187500.02235174447, -187500.02235174447, -187500.02235174447, -0.056, 0.9400000000000001, -0.302, 192.0, 254.0, 64.0, 29.0, 96.0, 246.0, 144.0, 0.0, 0.0, 0.0, 1.7184669245877774E9, 0.0, 2024-06-15 10:55:24.587
120.0, 49115.499748647184, -133794.2789547776, 95643.09217251447, -187500.02235174447, 94276.66297872819, -187500.02235174447, -187500.02235174447, -187500.02235174447, -0.056, 0.9400000000000001, -0.302, 192.0, 0.0, 0.0, 0.0, 0.0, 0.0, 0.0, 0.0, 0.0, 0.0, 1.718466924587788E9, 0.0, 2024-06-15 10:55:24.587
121.0, 45065.318949856635, -139553.25061717638, 91594.1183679245, -187500.02235174447, 90763.41578524302, -187500.02235174447, -187500.02235174447, -187500.02235174447, -0.056, 0.9400000000000001, -0.302, 192.0, 0.0, 0.0, 0.0, 0.0, 0.0, 0.0, 0.0, 0.0, 0.0, 1.718466924587798E9, 0.0, 2024-06-15 10:55:24.587
122.0, 46019.24669972023, -139024.20717766372, 92865.10561288663, -187500.02235174447, 92104.7886734949, -187500.02235174447, -187500.02235174447, -187500.02235174447, -0.056, 0.9400000000000001, -0.302, 192.0, 0.0, 0.0, 0.0, 0.0, 0.0, 0.0, 0.0, 0.0, 0.0, 1.718466924587808E9, 0.0, 2024-06-15 10:55:24.587
123.0, 50150.43022041681, -133282.02167535087, 97016.53981405972, -187500.02235174447, 95706.52642327863, -187500.02235174447, -187500.02235174447, -187500.02235174447, -0.056, 0.9400000000000001, -0.302, 192.0, 0.0, 0.0, 0.0, 0.0, 0.0, 0.0, 0.0, 0.0, 0.0, 1.718466924587818E9, 0.0, 2024-06-15 10:55:24.587
124.0, 49750.289291177905, -133039.81817243318, 96331.28003254891, -187500.02235174447, 94891.51476520476, -187500.02235174447, -187500.02235174447, -187500.02235174447, -0.056, 0.9400000000000001, -0.302, 192.0, 0.0, 0.0, 0.0, 0.0, 0.0, 0.0, 0.0, 0.0, 0.0, 1.7184669245878315E9, 0.0, 2024-06-15 10:55:24.587
125.0, 45567.74146172303, -138714.61316521326, 92076.87134467022, -187500.02235174447, 91142.34490899384, -187500.02235174447, -187500.02235174447, -187500.02235174447, -0.056, 0.9400000000000001, -0.302, 192.0, 0.0, 0.0, 0.0, 0.0, 0.0, 0.0, 0.0, 0.0, 0.0, 1.718466924587844E9, 0.0, 2024-06-15 10:55:24.587
126.0, 45363.267703445876, -139810.42978887915, 92168.44644170362, -187500.02235174447, 91446.86507545294, -187500.02235174447, -187500.02235174447, -187500.02235174447, -0.056, 0.9400000000000001, -0.302, 192.0, 0.0, 0.0, 0.0, 0.0, 0.0, 0.0, 0.0, 0.0, 0.0, 1.718466924587875E9, 0.0, 2024-06-15 10:55:24.587
127.0, 49601.29256263883, -134109.5056068308, 96521.67219181922, -187500.02235174447, 95292.72857817753, -187500.02235174447, -187500.02235174447, -187500.02235174447, -0.056, 0.9400000000000001, -0.302, 192.0, 0.0, 0.0, 0.0, 0.0, 0.0, 0.0, 0.0, 0.0, 0.0, 1.7184669245878856E9, 0.0, 2024-06-15 10:55:24.587
128.0, 50243.10055292852, -132483.7291221296, 96895.54982132315, -187500.02235174447, 95405.1131492988, -187500.02235174447, -187500.02235174447, -187500.02235174447, -0.056, 0.9400000000000001, -0.302, 192.0, 0.0, 0.0, 0.0, 0.0, 0.0, 0.0, 0.0, 0.0, 0.0, 1.718466924587896E9, 0.0, 2024-06-15 10:55:24.587
129.0, 46238.450257593424, -137661.68953915712, 92748.58596904112, -187500.02235174447, 91697.22696509684, -187500.02235174447, -187500.02235174447, -187500.02235174447, -0.066, 0.9460000000000001, -0.296, 192.0, 253.0, 240.0, 29.0, 144.0, 246.0, 192.0, 0.0, 0.0, 0.0, 1.718466924587922E9, 0.0, 2024-06-15 10:55:24.587
130.0, 44884.76155814667, -140295.4179400704, 91643.85099933756, -187500.02235174447, 90938.29583386134, -187500.02235174447, -187500.02235174447, -187500.02235174447, -0.066, 0.9460000000000001, -0.296, 192.0, 0.0, 0.0, 0.0, 0.0, 0.0, 0.0, 0.0, 0.0, 0.0, 1.718466924587953E9, 0.0, 2024-06-15 10:55:24.587
131.0, 48865.83076308141, -135145.95599722338, 95821.66025896791, -187500.02235174447, 94704.63182981394, -187500.02235174447, -187500.02235174447, -187500.02235174447, -0.066, 0.9460000000000001, -0.296, 192.0, 0.0, 0.0, 0.0, 0.0, 0.0, 0.0, 0.0, 0.0, 0.0, 1.718466924587964E9, 0.0, 2024-06-15 10:55:24.587
132.0, 50534.43319015899, -132240.34097675575, 97254.451782042, -187500.02235174447, 95766.74202284122, -187500.02235174447, -187500.02235174447, -187500.02235174447, -0.066, 0.9460000000000001, -0.296, 192.0, 0.0, 0.0, 0.0, 0.0, 0.0, 0.0, 0.0, 0.0, 0.0, 1.7184669245879743E9, 0.0, 2024-06-15 10:55:24.587
133.0, 46998.3425138405, -136575.2829999069, 93512.68035324579, -187500.02235174447, 92370.10388017939, -187500.02235174447, -187500.02235174447, -187500.02235174447, -0.066, 0.9460000000000001, -0.296, 192.0, 0.0, 0.0, 0.0, 0.0, 0.0, 0.0, 0.0, 0.0, 0.0, 1.718466924587985E9, 0.0, 2024-06-15 10:55:24.587
134.0, 44665.580352017925, -140467.12404097605, 91352.1607341958, -187500.02235174447, 90641.12939132802, -187500.02235174447, -187500.02235174447, -187500.02235174447, -0.066, 0.9460000000000001, -0.296, 192.0, 0.0, 0.0, 0.0, 0.0, 0.0, 0.0, 0.0, 0.0, 0.0, 1.7184669245880108E9, 0.0, 2024-06-15 10:55:24.588
135.0, 48162.06373716161, -136155.56194252515, 95102.42582588505, -187500.02235174447, 94081.5098978889, -187500.02235174447, -187500.02235174447, -187500.02235174447, -0.066, 0.9460000000000001, -0.296, 192.0, 0.0, 0.0, 0.0, 0.0, 0.0, 0.0, 0.0, 0.0, 0.0, 1.7184669245880208E9, 0.0, 2024-06-15 10:55:24.588
136.0, 50755.04490793287, -132113.07014382724, 97511.83211944487, -187500.02235174447, 96026.58105213416, -187500.02235174447, -187500.02235174447, -187500.02235174447, -0.066, 0.9460000000000001, -0.296, 192.0, 0.0, 0.0, 0.0, 0.0, 0.0, 0.0, 0.0, 0.0, 0.0, 1.718466924588034E9, 0.0, 2024-06-15 10:55:24.588
137.0, 47836.242358236595, -135422.9164627691, 94349.6190726303, -187500.02235174447, 93106.70561870404, -187500.02235174447, -187500.02235174447, -187500.02235174447, -0.066, 0.9460000000000001, -0.296, 192.0, 0.0, 0.0, 0.0, 0.0, 0.0, 0.0, 0.0, 0.0, 0.0, 1.718466924588045E9, 0.0, 2024-06-15 10:55:24.588
138.0, 44600.31325820843, -140371.39151947398, 91218.31848839742, -187500.02235174447, 90490.09865404353, -187500.02235174447, -187500.02235174447, -187500.02235174447, -0.066, 0.9460000000000001, -0.296, 192.0, 0.0, 0.0, 0.0, 0.0, 0.0, 0.0, 0.0, 0.0, 0.0, 1.7184669245880754E9, 0.0, 2024-06-15 10:55:24.588
0.0, 0.0, 0.0, 0.0, 0.0, 0.0, 0.0, 0.0, 0.0, -0.066, 0.9460000000000001, -0.296, 192.0, 0.0, 0.0, 0.0, 0.0, 0.0, 0.0, 0.0, 0.0, 0.0, 1.7184669246897383E9, 0.0, 2024-06-15 10:55:24.689
1.0, 72870.66553481406, 67081.80959007854, 49519.14990176557, -187500.02235174447, 114500.7225275901, -187500.02235174447, -187500.02235174447, -187500.02235174447, -0.04, 0.9560000000000001, -0.244, 192.0, 254.0, 192.0, 29.0, 224.0, 248.0, 96.0, 0.0, 0.0, 0.0, 1.7184669251729693E9, 0.0, 2024-06-15 10:55:25.172
2.0, 72626.02569175074, 68605.438602619, 51108.35893253791, -187500.02235174447, 115782.25979593514, -187500.02235174447, -187500.02235174447, -187500.02235174447, -0.04, 0.9560000000000001, -0.244, 192.0, 0.0, 0.0, 0.0, 0.0, 0.0, 0.0, 0.0, 0.0, 0.0, 1.7184669251730928E9, 0.0, 2024-06-15 10:55:25.173
3.0, 72279.03721082654, 69525.92814277747, 54726.59226972965, -187500.02235174447, 117687.14251364977, -187500.02235174447, -187500.02235174447, -187500.02235174447, -0.04, 0.9560000000000001, -0.244, 192.0, 0.0, 0.0, 0.0, 0.0, 0.0, 0.0, 0.0, 0.0, 0.0, 1.7184669251731043E9, 0.0, 2024-06-15 10:55:25.173
4.0, 72463.19323339382, 68292.69299420035, 53687.72789093589, -187500.02235174447, 116662.33738211839, -187500.02235174447, -187500.02235174447, -187500.02235174447, -0.04, 0.9560000000000001, -0.244, 192.0, 0.0, 0.0, 0.0, 0.0, 0.0, 0.0, 0.0, 0.0, 0.0, 1.7184669251731157E9, 0.0, 2024-06-15 10:55:25.173
5.0, 72889.23983445643, 67119.53933471911, 49507.2364219709, -187500.02235174447, 114183.39481155812, -187500.02235174447, -187500.02235174447, -187500.02235174447, -0.04, 0.9560000000000001, -0.244, 192.0, 0.0, 0.0, 0.0, 0.0, 0.0, 0.0, 0.0, 0.0, 0.0, 1.7184669251731265E9, 0.0, 2024-06-15 10:55:25.173
6.0, 72721.22177138588, 68308.76389846372, 50055.63647218185, -187500.02235174447, 114926.05387283015, -187500.02235174447, -187500.02235174447, -187500.02235174447, -0.04, 0.9560000000000001, -0.244, 192.0, 0.0, 0.0, 0.0, 0.0, 0.0, 0.0, 0.0, 0.0, 0.0, 1.7184669251731367E9, 0.0, 2024-06-15 10:55:25.173
7.0, 72222.82257352145, 69450.06632209616, 54543.620889618505, -187500.02235174447, 117797.2025033477, -187500.02235174447, -187500.02235174447, -187500.02235174447, -0.04, 0.9560000000000001, -0.244, 192.0, 0.0, 0.0, 0.0, 0.0, 0.0, 0.0, 0.0, 0.0, 0.0, 1.7184669251731467E9, 0.0, 2024-06-15 10:55:25.173
8.0, 72297.27623430207, 68459.66052528149, 54748.00524091783, -187500.02235174447, 117652.43025451068, -187500.02235174447, -187500.02235174447, -187500.02235174447, -0.018000000000000002, 0.964, -0.228, 192.0, 255.0, 112.0, 30.0, 32.0, 248.0, 224.0, 0.0, 0.0, 0.0, 1.7184669251731565E9, 0.0, 2024-06-15 10:55:25.173
9.0, 72858.5955928082, 67181.2077976713, 50186.237715034214, -187500.02235174447, 114605.90983699678, -187500.02235174447, -187500.02235174447, -187500.02235174447, -0.018000000000000002, 0.964, -0.228, 192.0, 0.0, 0.0, 0.0, 0.0, 0.0, 0.0, 0.0, 0.0, 0.0, 1.7184669251731665E9, 0.0, 2024-06-15 10:55:25.173
10.0, 72852.11358691617, 68070.67311652578, 49228.95720350232, -187500.02235174447, 114238.40245466262, -187500.02235174447, -187500.02235174447, -187500.02235174447, -0.018000000000000002, 0.964, -0.228, 192.0, 0.0, 0.0, 0.0, 0.0, 0.0, 0.0, 0.0, 0.0, 0.0, 1.7184669251731768E9, 0.0, 2024-06-15 10:55:25.173
11.0, 72324.9700456822, 69483.70569750138, 53750.44688587748, -187500.02235174447, 117242.87924085608, -187500.02235174447, -187500.02235174447, -187500.02235174447, -0.018000000000000002, 0.964, -0.228, 192.0, 0.0, 0.0, 0.0, 0.0, 0.0, 0.0, 0.0, 0.0, 0.0, 1.7184669251731868E9, 0.0, 2024-06-15 10:55:25.173
12.0, 72258.92064081677, 68763.66660161813, 55183.998368263055, -187500.02235174447, 117972.82015953305, -187500.02235174447, -187500.02235174447, -187500.02235174447, -0.018000000000000002, 0.964, -0.228, 192.0, 0.0, 0.0, 0.0, 0.0, 0.0, 0.0, 0.0, 0.0, 0.0, 1.718466925173197E9, 0.0, 2024-06-15 10:55:25.173
13.0, 72783.29256573827, 67317.35227314857, 51023.62346930784, -187500.02235174447, 115116.22251465589, -187500.02235174447, -187500.02235174447, -187500.02235174447, -0.018000000000000002, 0.964, -0.228, 192.0, 0.0, 0.0, 0.0, 0.0, 0.0, 0.0, 0.0, 0.0, 0.0, 1.7184669251732073E9, 0.0, 2024-06-15 10:55:25.173
14.0, 72943.28635254936, 67781.1956740851, 48949.22512164416, -187500.02235174447, 114057.15215887454, -187500.02235174447, -187500.02235174447, -187500.02235174447, -0.018000000000000002, 0.964, -0.228, 192.0, 0.0, 0.0, 0.0, 0.0, 0.0, 0.0, 0.0, 0.0, 0.0, 1.718466925173217E9, 0.0, 2024-06-15 10:55:25.173
15.0, 72446.22825935224, 69406.8380483196, 52997.28250471145, -187500.02235174447, 116784.37790684437, -187500.02235174447, -187500.02235174447, -187500.02235174447, -0.018000000000000002, 0.964, -0.228, 192.0, 0.0, 0.0, 0.0, 0.0, 0.0, 0.0, 0.0, 0.0, 0.0, 1.7184669251732268E9, 0.0, 2024-06-15 10:55:25.173
16.0, 72269.29185024403, 69065.83983490942, 55309.61517210188, -187500.02235174447, 118063.23296585477, -187500.02235174447, -187500.02235174447, -187500.02235174447, -0.018000000000000002, 0.964, -0.228, 192.0, 0.0, 0.0, 0.0, 0.0, 0.0, 0.0, 0.0, 0.0, 0.0, 1.7184669251732366E9, 0.0, 2024-06-15 10:55:25.173
17.0, 72724.59688479864, 67545.47417705944, 51771.57989401578, -187500.02235174447, 115554.29435423546, -187500.02235174447, -187500.02235174447, -187500.02235174447, -0.018000000000000002, 0.964, -0.228, 192.0, 0.0, 0.0, 0.0, 0.0, 0.0, 0.0, 0.0, 0.0, 0.0, 1.7184669251732469E9, 0.0, 2024-06-15 10:55:25.173
18.0, 72966.57687027179, 67504.9281126175, 48925.420513799254, -187500.02235174447, 114080.04034519677, -187500.02235174447, -187500.02235174447, -187500.02235174447, -0.008, 0.966, -0.216, 192.0, 255.0, 192.0, 30.0, 48.0, 249.0, 64.0, 0.0, 0.0, 0.0, 1.7184669251732566E9, 0.0, 2024-06-15 10:55:25.173
19.0, 72552.73432168178, 69226.4371188208, 52208.75766381713, -187500.02235174447, 116322.18853499753, -187500.02235174447, -187500.02235174447, -187500.02235174447, -0.008, 0.966, -0.216, 192.0, 0.0, 0.0, 0.0, 0.0, 0.0, 0.0, 0.0, 0.0, 0.0, 1.7184669251732664E9, 0.0, 2024-06-15 10:55:25.173
20.0, 72315.22468509969, 69338.48641377526, 55166.74282154356, -187500.02235174447, 117941.39360682889, -187500.02235174447, -187500.02235174447, -187500.02235174447, -0.008, 0.966, -0.216, 192.0, 0.0, 0.0, 0.0, 0.0, 0.0, 0.0, 0.0, 0.0, 0.0, 1.7184669251732764E9, 0.0, 2024-06-15 10:55:25.173
21.0, 72679.40165751001, 67835.75628230051, 52482.700643861375, -187500.02235174447, 115959.64323993245, -187500.02235174447, -187500.02235174447, -187500.02235174447, -0.008, 0.966, -0.216, 192.0, 0.0, 0.0, 0.0, 0.0, 0.0, 0.0, 0.0, 0.0, 0.0, 1.7184669251732864E9, 0.0, 2024-06-15 10:55:25.173
22.0, 72983.49714082446, 67286.99860417827, 49113.979830024226, -187500.02235174447, 114220.34224514273, -187500.02235174447, -187500.02235174447, -187500.02235174447, -0.008, 0.966, -0.216, 192.0, 0.0, 0.0, 0.0, 0.0, 0.0, 0.0, 0.0, 0.0, 0.0, 1.7184669251732965E9, 0.0, 2024-06-15 10:55:25.173
23.0, 72669.2539655273, 68961.05485690295, 51450.00534653728, -187500.02235174447, 115900.88050375946, -187500.02235174447, -187500.02235174447, -187500.02235174447, -0.008, 0.966, -0.216, 192.0, 0.0, 0.0, 0.0, 0.0, 0.0, 0.0, 0.0, 0.0, 0.0, 1.7184669251733062E9, 0.0, 2024-06-15 10:55:25.173
24.0, 72370.90288053786, 69544.86007033111, 54853.125495091146, -187500.02235174447, 117732.29303744949, -187500.02235174447, -187500.02235174447, -187500.02235174447, -0.008, 0.966, -0.216, 192.0, 0.0, 0.0, 0.0, 0.0, 0.0, 0.0, 0.0, 0.0, 0.0, 1.718466925173316E9, 0.0, 2024-06-15 10:55:25.173
25.0, 72603.7857060177, 68137.59423942497, 53100.346398394875, -187500.02235174447, 116306.47525864546, -187500.02235174447, -187500.02235174447, -187500.02235174447, -0.008, 0.966, -0.216, 192.0, 0.0, 0.0, 0.0, 0.0, 0.0, 0.0, 0.0, 0.0, 0.0, 1.718466925173326E9, 0.0, 2024-06-15 10:55:25.173
26.0, 72937.18432631306, 67144.03684664212, 49402.45144396442, -187500.02235174447, 114358.81130204337, -187500.02235174447, -187500.02235174447, -187500.02235174447, -0.008, 0.966, -0.216, 192.0, 0.0, 0.0, 0.0, 0.0, 0.0, 0.0, 0.0, 0.0, 0.0, 1.7184669251733358E9, 0.0, 2024-06-15 10:55:25.173
27.0, 72720.08183241867, 68600.43181186102, 50759.068221934824, -187500.02235174447, 115520.00677824102, -187500.02235174447, -187500.02235174447, -187500.02235174447, -0.008, 0.966, -0.216, 192.0, 0.0, 0.0, 0.0, 0.0, 0.0, 0.0, 0.0, 0.0, 0.0, 1.7184669251733456E9, 0.0, 2024-06-15 10:55:25.173
28.0, 72383.1292847549, 69613.65873976455, 54493.93296169436, -187500.02235174447, 117561.86098597778, -187500.02235174447, -187500.02235174447, -187500.02235174447, -0.008, 0.966, -0.216, 192.0, 0.0, 0.0, 0.0, 0.0, 0.0, 0.0, 0.0, 0.0, 0.0, 1.718466925173355E9, 0.0, 2024-06-15 10:55:25.173
29.0, 72529.33204523707, 68433.97837090235, 53686.23032405738, -187500.02235174447, 116688.19835045318, -187500.02235174447, -187500.02235174447, -187500.02235174447, -0.004, 0.964, -0.214, 192.0, 255.0, 224.0, 30.0, 32.0, 249.0, 80.0, 0.0, 0.0, 0.0, 1.718466925173365E9, 0.0, 2024-06-15 10:55:25.173
30.0, 72893.19609322502, 67133.26330581466, 49775.97144555706, -187500.02235174447, 114497.01213801053, -187500.02235174447, -187500.02235174447, -187500.02235174447, -0.004, 0.964, -0.214, 192.0, 0.0, 0.0, 0.0, 0.0, 0.0, 0.0, 0.0, 0.0, 0.0, 1.7184669251733751E9, 0.0, 2024-06-15 10:55:25.173
31.0, 72761.47726314989, 68242.46862440927, 50142.87533079092, -187500.02235174447, 115158.55671865425, -187500.02235174447, -187500.02235174447, -187500.02235174447, -0.004, 0.964, -0.214, 192.0, 0.0, 0.0, 0.0, 0.0, 0.0, 0.0, 0.0, 0.0, 0.0, 1.7184669251733851E9, 0.0, 2024-06-15 10:55:25.173
32.0, 72362.2304036892, 69577.94065212496, 54121.68700953567, -187500.02235174447, 117437.3170658728, -187500.02235174447, -187500.02235174447, -187500.02235174447, -0.004, 0.964, -0.214, 192.0, 0.0, 0.0, 0.0, 0.0, 0.0, 0.0, 0.0, 0.0, 0.0, 1.718466925173395E9, 0.0, 2024-06-15 10:55:25.173
33.0, 72422.98244511873, 68682.55212098981, 54291.58261914046, -187500.02235174447, 117148.10784436559, -187500.02235174447, -187500.02235174447, -187500.02235174447, -0.004, 0.964, -0.214, 192.0, 0.0, 0.0, 0.0, 0.0, 0.0, 0.0, 0.0, 0.0, 0.0, 1.7184669251734042E9, 0.0, 2024-06-15 10:55:25.173
34.0, 72870.12909294714, 67231.94625758484, 50234.29396561313, -187500.02235174447, 114648.73577937315, -187500.02235174447, -187500.02235174447, -187500.02235174447, -0.004, 0.964, -0.214, 192.0, 0.0, 0.0, 0.0, 0.0, 0.0, 0.0, 0.0, 0.0, 0.0, 1.718466925173414E9, 0.0, 2024-06-15 10:55:25.173
35.0, 72864.98819172243, 67947.42559759923, 49427.64185996555, -187500.02235174447, 114599.09255493792, -187500.02235174447, -187500.02235174447, -187500.02235174447, -0.004, 0.964, -0.214, 192.0, 0.0, 0.0, 0.0, 0.0, 0.0, 0.0, 0.0, 0.0, 0.0, 1.7184669251734235E9, 0.0, 2024-06-15 10:55:25.173
36.0, 72369.00298225916, 69461.59982223509, 53657.12835277657, -187500.02235174447, 117301.10553516216, -187500.02235174447, -187500.02235174447, -187500.02235174447, -0.004, 0.964, -0.214, 192.0, 0.0, 0.0, 0.0, 0.0, 0.0, 0.0, 0.0, 0.0, 0.0, 1.7184669251734333E9, 0.0, 2024-06-15 10:55:25.173
37.0, 72255.6572861263, 68823.72573896954, 55192.91671430072, -187500.02235174447, 118055.25339308422, -187500.02235174447, -187500.02235174447, -187500.02235174447, -0.004, 0.964, -0.214, 192.0, 0.0, 0.0, 0.0, 0.0, 0.0, 0.0, 0.0, 0.0, 0.0, 1.718466925173443E9, 0.0, 2024-06-15 10:55:25.173
38.0, 72740.77954778427, 67340.95571529338, 51125.346258323945, -187500.02235174447, 115233.43506257953, -187500.02235174447, -187500.02235174447, -187500.02235174447, -0.004, 0.964, -0.214, 192.0, 0.0, 0.0, 0.0, 0.0, 0.0, 0.0, 0.0, 0.0, 0.0, 1.718466925173454E9, 0.0, 2024-06-15 10:55:25.173
39.0, 72962.77707371439, 67739.4873189315, 48654.9867576345, -187500.02235174447, 113829.92432474189, -187500.02235174447, -187500.02235174447, -187500.02235174447, -0.006, 0.96, -0.20600000000000002, 192.0, 255.0, 208.0, 30.0, 0.0, 249.0, 144.0, 0.0, 0.0, 0.0, 1.718466925173464E9, 0.0, 2024-06-15 10:55:25.173
40.0, 72472.60331780951, 69388.10728646604, 52581.87533400957, -187500.02235174447, 116500.68956621761, -187500.02235174447, -187500.02235174447, -187500.02235174447, -0.006, 0.96, -0.20600000000000002, 192.0, 0.0, 0.0, 0.0, 0.0, 0.0, 0.0, 0.0, 0.0, 0.0, 1.7184669251734743E9, 0.0, 2024-06-15 10:55:25.173
41.0, 72225.1471549448, 69071.07014311197, 55323.16032924179, -187500.02235174447, 118183.35124055759, -187500.02235174447, -187500.02235174447, -187500.02235174447, -0.006, 0.96, -0.20600000000000002, 192.0, 0.0, 0.0, 0.0, 0.0, 0.0, 0.0, 0.0, 0.0, 0.0, 1.718466925173484E9, 0.0, 2024-06-15 10:55:25.173
42.0, 72681.43566625543, 67554.81720624176, 51963.693137609145, -187500.02235174447, 115776.94008075478, -187500.02235174447, -187500.02235174447, -187500.02235174447, -0.006, 0.96, -0.20600000000000002, 192.0, 0.0, 0.0, 0.0, 0.0, 0.0, 0.0, 0.0, 0.0, 0.0, 1.718466925173494E9, 0.0, 2024-06-15 10:55:25.173
43.0, 73013.51553362794, 67486.46557169742, 48554.04627967433, -187500.02235174447, 113730.3920066824, -187500.02235174447, -187500.02235174447, -187500.02235174447, -0.006, 0.96, -0.20600000000000002, 192.0, 0.0, 0.0, 0.0, 0.0, 0.0, 0.0, 0.0, 0.0, 0.0, 1.718466925173504E9, 0.0, 2024-06-15 10:55:25.173
44.0, 72575.84602544857, 69182.71710666623, 51694.13109947814, -187500.02235174447, 115918.00194001221, -187500.02235174447, -187500.02235174447, -187500.02235174447, -0.006, 0.96, -0.20600000000000002, 192.0, 0.0, 0.0, 0.0, 0.0, 0.0, 0.0, 0.0, 0.0, 0.0, 1.718466925173537E9, 0.0, 2024-06-15 10:55:25.173
45.0, 72217.16758217425, 69264.07745648354, 55300.2050876862, -187500.02235174447, 118217.19178166293, -187500.02235174447, -187500.02235174447, -187500.02235174447, -0.006, 0.96, -0.20600000000000002, 192.0, 0.0, 0.0, 0.0, 0.0, 0.0, 0.0, 0.0, 0.0, 0.0, 1.7184669251735475E9, 0.0, 2024-06-15 10:55:25.173
46.0, 72580.40578131746, 67799.63586326073, 52829.376200363185, -187500.02235174447, 116365.10388435173, -187500.02235174447, -187500.02235174447, -187500.02235174447, -0.006, 0.96, -0.20600000000000002, 192.0, 0.0, 0.0, 0.0, 0.0, 0.0, 0.0, 0.0, 0.0, 0.0, 1.7184669251735728E9, 0.0, 2024-06-15 10:55:25.173
47.0, 73026.34543494528, 67314.46889811385, 48690.90601097418, -187500.02235174447, 113782.09159160753, -187500.02235174447, -187500.02235174447, -187500.02235174447, -0.006, 0.96, -0.20600000000000002, 192.0, 0.0, 0.0, 0.0, 0.0, 0.0, 0.0, 0.0, 0.0, 0.0, 1.7184669251735816E9, 0.0, 2024-06-15 10:55:25.173
48.0, 72697.21599784089, 68941.58648748237, 50802.92234455614, -187500.02235174447, 115334.30848530633, -187500.02235174447, -187500.02235174447, -187500.02235174447, -0.006, 0.96, -0.20600000000000002, 192.0, 0.0, 0.0, 0.0, 0.0, 0.0, 0.0, 0.0, 0.0, 0.0, 1.718466925173591E9, 0.0, 2024-06-15 10:55:25.173
49.0, 72257.91481231627, 69439.3374847576, 55030.0395524549, -187500.02235174447, 118070.69844850284, -187500.02235174447, -187500.02235174447, -187500.02235174447, -0.006, 0.96, -0.20600000000000002, 192.0, 0.0, 0.0, 30.0, 48.0, 249.0, 192.0, 0.0, 0.0, 0.0, 1.7184669251735995E9, 0.0, 2024-06-15 10:55:25.173
50.0, 72494.99976575372, 68084.28532889907, 53623.66779132698, -187500.02235174447, 116907.58072228203, -187500.02235174447, -187500.02235174447, -187500.02235174447, -0.006, 0.96, -0.20600000000000002, 192.0, 0.0, 0.0, 0.0, 0.0, 0.0, 0.0, 0.0, 0.0, 0.0, 1.7184669251736088E9, 0.0, 2024-06-15 10:55:25.173
51.0, 72984.79354200287, 67209.30394045162, 49119.38895218241, -187500.02235174447, 114019.57887644517, -187500.02235174447, -187500.02235174447, -187500.02235174447, -0.006, 0.96, -0.20600000000000002, 192.0, 0.0, 0.0, 0.0, 0.0, 0.0, 0.0, 0.0, 0.0, 0.0, 1.7184669251736176E9, 0.0, 2024-06-15 10:55:25.173
52.0, 72800.14578105758, 68642.27427748135, 50040.32552722997, -187500.02235174447, 114825.24750533671, -187500.02235174447, -187500.02235174447, -187500.02235174447, -0.006, 0.96, -0.20600000000000002, 192.0, 0.0, 0.0, 0.0, 0.0, 0.0, 0.0, 0.0, 0.0, 0.0, 1.7184669251736267E9, 0.0, 2024-06-15 10:55:25.173
53.0, 72300.87486515938, 69542.8707650746, 54629.22807088233, -187500.02235174447, 117835.06635845499, -187500.02235174447, -187500.02235174447, -187500.02235174447, -0.006, 0.96, -0.20600000000000002, 192.0, 0.0, 0.0, 0.0, 0.0, 0.0, 0.0, 0.0, 0.0, 0.0, 1.7184669251736355E9, 0.0, 2024-06-15 10:55:25.173
54.0, 72403.62583442043, 68380.87062607653, 54339.348297041455, -187500.02235174447, 117408.70683297001, -187500.02235174447, -187500.02235174447, -187500.02235174447, -0.006, 0.96, -0.20600000000000002, 192.0, 0.0, 0.0, 0.0, 0.0, 0.0, 0.0, 0.0, 0.0, 0.0, 1.7184669251736443E9, 0.0, 2024-06-15 10:55:25.173
55.0, 72922.36511973919, 67209.88508580746, 49701.24956384296, -187500.02235174447, 114338.0912349333, -187500.02235174447, -187500.02235174447, -187500.02235174447, -0.006, 0.96, -0.20600000000000002, 192.0, 0.0, 0.0, 0.0, 0.0, 0.0, 0.0, 0.0, 0.0, 0.0, 1.7184669251736531E9, 0.0, 2024-06-15 10:55:25.173
56.0, 72900.48276191745, 68341.4868523463, 49348.583739827125, -187500.02235174447, 114344.72970303652, -187500.02235174447, -187500.02235174447, -187500.02235174447, -0.006, 0.96, -0.20600000000000002, 192.0, 0.0, 0.0, 0.0, 0.0, 0.0, 0.0, 0.0, 0.0, 0.0, 1.7184669251736622E9, 0.0, 2024-06-15 10:55:25.173
57.0, 72370.58995611548, 69591.30699530923, 54019.248964697006, -187500.02235174447, 117462.95451676304, -187500.02235174447, -187500.02235174447, -187500.02235174447, -0.006, 0.96, -0.20600000000000002, 192.0, 0.0, 0.0, 0.0, 0.0, 0.0, 0.0, 0.0, 0.0, 0.0, 1.718466925173671E9, 0.0, 2024-06-15 10:55:25.173
58.0, 72341.37622611239, 68679.40052502161, 54900.06415844729, -187500.02235174447, 117847.29276267205, -187500.02235174447, -187500.02235174447, -187500.02235174447, -0.006, 0.96, -0.20600000000000002, 192.0, 0.0, 0.0, 0.0, 0.0, 0.0, 0.0, 0.0, 0.0, 0.0, 1.71846692517368E9, 0.0, 2024-06-15 10:55:25.173
59.0, 72884.88124428765, 67305.17057242044, 50481.59366626664, -187500.02235174447, 114842.23483112274, -187500.02235174447, -187500.02235174447, -187500.02235174447, -0.006, 0.96, -0.20600000000000002, 192.0, 0.0, 0.0, 30.0, 48.0, 249.0, 192.0, 0.0, 0.0, 0.0, 1.718466925173689E9, 0.0, 2024-06-15 10:55:25.173
60.0, 73009.31340567034, 68039.91711615528, 48883.063958056446, -187500.02235174447, 114014.52738219827, -187500.02235174447, -187500.02235174447, -187500.02235174447, -0.006, 0.96, -0.20600000000000002, 192.0, 0.0, 0.0, 0.0, 0.0, 0.0, 0.0, 0.0, 0.0, 0.0, 1.7184669251736977E9, 0.0, 2024-06-15 10:55:25.173
61.0, 72461.89683221541, 69530.86787830209, 53267.49274343166, -187500.02235174447, 116959.10149325151, -187500.02235174447, -187500.02235174447, -187500.02235174447, -0.006, 0.96, -0.20600000000000002, 192.0, 0.0, 0.0, 0.0, 0.0, 0.0, 0.0, 0.0, 0.0, 0.0, 1.7184669251737063E9, 0.0, 2024-06-15 10:55:25.173
62.0, 72311.067260631, 68936.53499323547, 55213.703836644156, -187500.02235174447, 118075.39231483845, -187500.02235174447, -187500.02235174447, -187500.02235174447, -0.006, 0.96, -0.20600000000000002, 192.0, 0.0, 0.0, 0.0, 0.0, 0.0, 0.0, 0.0, 0.0, 0.0, 1.718466925173715E9, 0.0, 2024-06-15 10:55:25.173
63.0, 72811.43341200751, 67446.79122528926, 51267.883332715435, -187500.02235174447, 115306.83819137076, -187500.02235174447, -187500.02235174447, -187500.02235174447, -0.006, 0.96, -0.20600000000000002, 192.0, 0.0, 0.0, 0.0, 0.0, 0.0, 0.0, 0.0, 0.0, 0.0, 1.7184669251737242E9, 0.0, 2024-06-15 10:55:25.173
64.0, 73079.87786291575, 67748.91975509164, 48568.91018973711, -187500.02235174447, 113754.30837324959, -187500.02235174447, -187500.02235174447, -187500.02235174447, -0.006, 0.96, -0.20600000000000002, 192.0, 0.0, 0.0, 0.0, 0.0, 0.0, 0.0, 0.0, 0.0, 0.0, 1.7184669251737332E9, 0.0, 2024-06-15 10:55:25.173
65.0, 72616.74971780178, 69424.25005725028, 52367.85738085001, -187500.02235174447, 116366.78026518587, -187500.02235174447, -187500.02235174447, -187500.02235174447, -0.006, 0.96, -0.20600000000000002, 192.0, 0.0, 0.0, 0.0, 0.0, 0.0, 0.0, 0.0, 0.0, 0.0, 1.718466925173746E9, 0.0, 2024-06-15 10:55:25.173
66.0, 72331.00501668513, 69189.40027825836, 55340.88526259486, -187500.02235174447, 118218.06349969668, -187500.02235174447, -187500.02235174447, -187500.02235174447, -0.006, 0.96, -0.20600000000000002, 192.0, 0.0, 0.0, 0.0, 0.0, 0.0, 0.0, 0.0, 0.0, 0.0, 1.7184669251737552E9, 0.0, 2024-06-15 10:55:25.173
67.0, 72741.49480360685, 67668.96756517501, 52150.5090177666, -187500.02235174447, 115889.86109374299, -187500.02235174447, -187500.02235174447, -187500.02235174447, -0.006, 0.96, -0.20600000000000002, 192.0, 0.0, 0.0, 0.0, 0.0, 0.0, 0.0, 0.0, 0.0, 0.0, 1.718466925173764E9, 0.0, 2024-06-15 10:55:25.173
68.0, 73132.96325599709, 67530.7890809523, 48494.92591559004, -187500.02235174447, 113646.9752963752, -187500.02235174447, -187500.02235174447, -187500.02235174447, -0.006, 0.96, -0.20600000000000002, 192.0, 0.0, 0.0, 0.0, 0.0, 0.0, 0.0, 0.0, 0.0, 0.0, 1.7184669251737728E9, 0.0, 2024-06-15 10:55:25.173
69.0, 72713.42101257098, 69226.30300835408, 51476.916846861466, -187500.02235174447, 115773.20733943074, -187500.02235174447, -187500.02235174447, -187500.02235174447, -0.006, 0.96, -0.20600000000000002, 192.0, 0.0, 0.0, 0.0, 0.0, 0.0, 0.0, 0.0, 0.0, 0.0, 1.718466925173782E9, 0.0, 2024-06-15 10:55:25.173
70.0, 72335.74358650966, 69401.13835348349, 55258.92141567724, -187500.02235174447, 118201.97024368886, -187500.02235174447, -187500.02235174447, -187500.02235174447, -0.002, 0.96, -0.20600000000000002, 192.0, 255.0, 240.0, 30.0, 0.0, 249.0, 144.0, 0.0, 0.0, 0.0, 1.7184669251737907E9, 0.0, 2024-06-15 10:55:25.173
71.0, 72650.23263099583, 67938.32843760592, 53003.67510362567, -187500.02235174447, 116472.6381269262, -187500.02235174447, -187500.02235174447, -187500.02235174447, -0.002, 0.96, -0.20600000000000002, 192.0, 0.0, 0.0, 0.0, 0.0, 0.0, 0.0, 0.0, 0.0, 0.0, 1.7184669251737995E9, 0.0, 2024-06-15 10:55:25.173
72.0, 73102.58723528234, 67355.93138407843, 48738.51522666398, -187500.02235174447, 113776.34719328252, -187500.02235174447, -187500.02235174447, -187500.02235174447, -0.002, 0.96, -0.20600000000000002, 192.0, 0.0, 0.0, 0.0, 0.0, 0.0, 0.0, 0.0, 0.0, 0.0, 1.7184669251738083E9, 0.0, 2024-06-15 10:55:25.173
73.0, 72810.31582478475, 68958.21618535712, 50628.24346163791, -187500.02235174447, 115207.01530063336, -187500.02235174447, -187500.02235174447, -187500.02235174447, -0.002, 0.96, -0.20600000000000002, 192.0, 0.0, 0.0, 0.0, 0.0, 0.0, 0.0, 0.0, 0.0, 0.0, 1.7184669251738174E9, 0.0, 2024-06-15 10:55:25.173
74.0, 72362.8339007895, 69556.37121872559, 55003.01629340843, -187500.02235174447, 118071.63722176997, -187500.02235174447, -187500.02235174447, -187500.02235174447, -0.002, 0.96, -0.20600000000000002, 192.0, 0.0, 0.0, 0.0, 0.0, 0.0, 0.0, 0.0, 0.0, 0.0, 1.7184669251738265E9, 0.0, 2024-06-15 10:55:25.173
75.0, 72572.51561552472, 68236.12072898397, 53823.51473850188, -187500.02235174447, 117053.35879961954, -187500.02235174447, -187500.02235174447, -187500.02235174447, -0.002, 0.96, -0.20600000000000002, 192.0, 0.0, 0.0, 0.0, 0.0, 0.0, 0.0, 0.0, 0.0, 0.0, 1.7184669251738355E9, 0.0, 2024-06-15 10:55:25.173
76.0, 73086.98571765253, 67295.380508349, 49182.890258179934, -187500.02235174447, 114024.47390848088, -187500.02235174447, -187500.02235174447, -187500.02235174447, -0.002, 0.96, -0.20600000000000002, 192.0, 0.0, 0.0, 0.0, 0.0, 0.0, 0.0, 0.0, 0.0, 0.0, 1.7184669251738446E9, 0.0, 2024-06-15 10:55:25.173
77.0, 72911.97155856747, 68651.37143747466, 49845.8653504688, -187500.02235174447, 114671.065172084, -187500.02235174447, -187500.02235174447, -187500.02235174447, -0.002, 0.96, -0.20600000000000002, 192.0, 0.0, 0.0, 0.0, 0.0, 0.0, 0.0, 0.0, 0.0, 0.0, 1.7184669251738536E9, 0.0, 2024-06-15 10:55:25.173
78.0, 72365.73962756868, 69606.5285332833, 54542.95033728485, -187500.02235174447, 117782.53975898502, -187500.02235174447, -187500.02235174447, -187500.02235174447, -0.002, 0.96, -0.20600000000000002, 192.0, 0.0, 0.0, 0.0, 0.0, 0.0, 0.0, 0.0, 0.0, 0.0, 1.7184669251738625E9, 0.0, 2024-06-15 10:55:25.173
79.0, 72443.65780873988, 68479.911205758, 54529.0699039781, -187500.02235174447, 117548.40523581568, -187500.02235174447, -187500.02235174447, -187500.02235174447, -0.002, 0.96, -0.20600000000000002, 192.0, 0.0, 0.0, 0.0, 0.0, 0.0, 0.0, 0.0, 0.0, 0.0, 1.7184669251738713E9, 0.0, 2024-06-15 10:55:25.173
80.0, 73007.0782312248, 67276.47093253981, 49862.02566170999, -187500.02235174447, 114421.19502081812, -187500.02235174447, -187500.02235174447, -187500.02235174447, -0.002, 0.96, -0.20600000000000002, 192.0, 0.0, 0.0, 30.0, 32.0, 249.0, 192.0, 0.0, 0.0, 0.0, 1.71846692517388E9, 0.0, 2024-06-15 10:55:25.173
81.0, 73006.2288649355, 68320.76678523622, 49240.021317007704, -187500.02235174447, 114238.40245466262, -187500.02235174447, -187500.02235174447, -187500.02235174447, -0.002, 0.96, -0.20600000000000002, 192.0, 0.0, 0.0, 0.0, 0.0, 0.0, 0.0, 0.0, 0.0, 0.0, 1.718466925173889E9, 0.0, 2024-06-15 10:55:25.173
82.0, 72444.59658200701, 69617.50323981086, 53927.69621940806, -187500.02235174447, 117387.18210305955, -187500.02235174447, -187500.02235174447, -187500.02235174447, -0.002, 0.96, -0.20600000000000002, 192.0, 0.0, 0.0, 0.0, 0.0, 0.0, 0.0, 0.0, 0.0, 0.0, 1.718466925173898E9, 0.0, 2024-06-15 10:55:25.173
83.0, 72390.34889821398, 68770.03684878789, 55064.90827380518, -187500.02235174447, 117945.21575513075, -187500.02235174447, -187500.02235174447, -187500.02235174447, -0.002, 0.96, -0.20600000000000002, 192.0, 0.0, 0.0, 0.0, 0.0, 0.0, 0.0, 0.0, 0.0, 0.0, 1.7184669251739073E9, 0.0, 2024-06-15 10:55:25.173
84.0, 72922.18630578356, 67357.76422712377, 50659.87118004217, -187500.02235174447, 114901.26578822921, -187500.02235174447, -187500.02235174447, -187500.02235174447, -0.002, 0.96, -0.20600000000000002, 192.0, 0.0, 0.0, 0.0, 0.0, 0.0, 0.0, 0.0, 0.0, 0.0, 1.718466925173916E9, 0.0, 2024-06-15 10:55:25.173
85.0, 73039.0859292848, 67974.80648455698, 48818.6238787918, -187500.02235174447, 113913.5869042381, -187500.02235174447, -187500.02235174447, -187500.02235174447, -0.002, 0.96, -0.20600000000000002, 192.0, 0.0, 0.0, 0.0, 0.0, 0.0, 0.0, 0.0, 0.0, 0.0, 1.7184669251739247E9, 0.0, 2024-06-15 10:55:25.173
86.0, 72517.84324858704, 69524.98936951034, 53130.543605153995, -187500.02235174447, 116849.5779454205, -187500.02235174447, -187500.02235174447, -187500.02235174447, -0.002, 0.96, -0.20600000000000002, 192.0, 0.0, 0.0, 0.0, 0.0, 0.0, 0.0, 0.0, 0.0, 0.0, 1.7184669251739337E9, 0.0, 2024-06-15 10:55:25.173
87.0, 72349.84753726095, 69023.8409070779, 55320.54517514053, -187500.02235174447, 118154.62924893251, -187500.02235174447, -187500.02235174447, -187500.02235174447, -0.002, 0.96, -0.20600000000000002, 192.0, 0.0, 0.0, 0.0, 0.0, 0.0, 0.0, 0.0, 0.0, 0.0, 1.7184669251739433E9, 0.0, 2024-06-15 10:55:25.173
88.0, 72846.5480025468, 67526.02815938332, 51491.06550110168, -187500.02235174447, 115438.2440970235, -187500.02235174447, -187500.02235174447, -187500.02235174447, -0.002, 0.96, -0.20600000000000002, 192.0, 0.0, 0.0, 0.0, 0.0, 0.0, 0.0, 0.0, 0.0, 0.0, 1.718466925173952E9, 0.0, 2024-06-15 10:55:25.173
89.0, 73110.70091851961, 67714.00633025245, 48556.884951220156, -187500.02235174447, 113702.85465751347, -187500.02235174447, -187500.02235174447, -187500.02235174447, -0.002, 0.96, -0.20600000000000002, 192.0, 0.0, 0.0, 0.0, 0.0, 0.0, 0.0, 0.0, 0.0, 0.0, 1.7184669251739607E9, 0.0, 2024-06-15 10:55:25.173
90.0, 72621.17536320393, 69389.56014985564, 52209.74114057316, -187500.02235174447, 116230.34521703068, -187500.02235174447, -187500.02235174447, -187500.02235174447, -0.002, 0.96, -0.20600000000000002, 192.0, 0.0, 0.0, 30.0, 80.0, 249.0, 224.0, 0.0, 0.0, 0.0, 1.7184669251739695E9, 0.0, 2024-06-15 10:55:25.173
91.0, 72293.38703076685, 69238.41765384885, 55405.30299011505, -187500.02235174447, 118251.88168905755, -187500.02235174447, -187500.02235174447, -187500.02235174447, -0.002, 0.96, -0.20600000000000002, 192.0, 0.0, 0.0, 0.0, 0.0, 0.0, 0.0, 0.0, 0.0, 0.0, 1.7184669251739783E9, 0.0, 2024-06-15 10:55:25.173
92.0, 72703.02745139926, 67730.45721417156, 52410.057474381625, -187500.02235174447, 116042.12117697253, -187500.02235174447, -187500.02235174447, -187500.02235174447, -0.002, 0.96, -0.20600000000000002, 192.0, 0.0, 0.0, 0.0, 0.0, 0.0, 0.0, 0.0, 0.0, 0.0, 1.7184669251739872E9, 0.0, 2024-06-15 10:55:25.173
93.0, 73075.83219716934, 67452.73678931437, 48618.3746002167, -187500.02235174447, 113698.02668071112, -187500.02235174447, -187500.02235174447, -187500.02235174447, -0.002, 0.96, -0.20600000000000002, 192.0, 0.0, 0.0, 0.0, 0.0, 0.0, 0.0, 0.0, 0.0, 0.0, 1.718466925173996E9, 0.0, 2024-06-15 10:55:25.173
94.0, 72724.663940032, 69150.57529813949, 51307.49062389024, -187500.02235174447, 115635.69940754169, -187500.02235174447, -187500.02235174447, -187500.02235174447, -0.002, 0.96, -0.20600000000000002, 192.0, 0.0, 0.0, 0.0, 0.0, 0.0, 0.0, 0.0, 0.0, 0.0, 1.7184669251740053E9, 0.0, 2024-06-15 10:55:25.174
95.0, 72328.3228073505, 69433.54838294369, 55258.720249977145, -187500.02235174447, 118203.08783091162, -187500.02235174447, -187500.02235174447, -187500.02235174447, -0.002, 0.96, -0.20600000000000002, 192.0, 0.0, 0.0, 0.0, 0.0, 0.0, 0.0, 0.0, 0.0, 0.0, 1.718466925174014E9, 0.0, 2024-06-15 10:55:25.174
96.0, 72631.7477383313, 67999.16988601326, 53248.136132733365, -187500.02235174447, 116632.4307480372, -187500.02235174447, -187500.02235174447, -187500.02235174447, -0.002, 0.96, -0.20600000000000002, 192.0, 0.0, 0.0, 0.0, 0.0, 0.0, 0.0, 0.0, 0.0, 0.0, 1.7184669251740232E9, 0.0, 2024-06-15 10:55:25.174
97.0, 73107.79519174043, 67332.57381112264, 48870.8822573283, -187500.02235174447, 113825.54338282865, -187500.02235174447, -187500.02235174447, -187500.02235174447, -0.002, 0.96, -0.20600000000000002, 192.0, 0.0, 0.0, 0.0, 0.0, 0.0, 0.0, 0.0, 0.0, 0.0, 1.7184669251740322E9, 0.0, 2024-06-15 10:55:25.174
98.0, 72857.18743290752, 68891.85385606931, 50454.03396535325, -187500.02235174447, 115061.97483086286, -187500.02235174447, -187500.02235174447, -187500.02235174447, -0.002, 0.96, -0.20600000000000002, 192.0, 0.0, 0.0, 0.0, 0.0, 0.0, 0.0, 0.0, 0.0, 0.0, 1.7184669251740413E9, 0.0, 2024-06-15 10:55:25.174
99.0, 72355.23430767469, 69568.32940200919, 54938.889138566155, -187500.02235174447, 118005.38665120443, -187500.02235174447, -187500.02235174447, -187500.02235174447, -0.002, 0.96, -0.20600000000000002, 192.0, 0.0, 0.0, 0.0, 0.0, 0.0, 0.0, 0.0, 0.0, 0.0, 1.71846692517405E9, 0.0, 2024-06-15 10:55:25.174
100.0, 72517.75384160923, 68270.29654625614, 54042.159502763694, -187500.02235174447, 117173.07474292217, -187500.02235174447, -187500.02235174447, -187500.02235174447, 0.002, 0.968, -0.20400000000000001, 192.0, 0.0, 16.0, 30.0, 64.0, 249.0, 160.0, 0.0, 0.0, 0.0, 1.718466925174059E9, 0.0, 2024-06-15 10:55:25.174
101.0, 73049.32302824534, 67259.03657186468, 49377.28337970774, -187500.02235174447, 114116.27252295882, -187500.02235174447, -187500.02235174447, -187500.02235174447, 0.002, 0.968, -0.20400000000000001, 192.0, 0.0, 0.0, 0.0, 0.0, 0.0, 0.0, 0.0, 0.0, 0.0, 1.7184669251740677E9, 0.0, 2024-06-15 10:55:25.174
102.0, 72962.55355626984, 68584.40561108656, 49691.25833407144, -187500.02235174447, 114546.54360372349, -187500.02235174447, -187500.02235174447, -187500.02235174447, 0.002, 0.968, -0.20400000000000001, 192.0, 0.0, 0.0, 0.0, 0.0, 0.0, 0.0, 0.0, 0.0, 0.0, 1.7184669251740768E9, 0.0, 2024-06-15 10:55:25.174
103.0, 72418.2885787831, 69646.78402504731, 54392.120765700434, -187500.02235174447, 117677.15128387825, -187500.02235174447, -187500.02235174447, -187500.02235174447, 0.002, 0.968, -0.20400000000000001, 192.0, 0.0, 0.0, 0.0, 0.0, 0.0, 0.0, 0.0, 0.0, 0.0, 1.7184669251740856E9, 0.0, 2024-06-15 10:55:25.174
104.0, 72445.73652097423, 68575.35315458216, 54674.87033306007, -187500.02235174447, 117652.29614404395, -187500.02235174447, -187500.02235174447, -187500.02235174447, 0.002, 0.968, -0.20400000000000001, 192.0, 0.0, 0.0, 0.0, 0.0, 0.0, 0.0, 0.0, 0.0, 0.0, 1.718466925174095E9, 0.0, 2024-06-15 10:55:25.174
105.0, 73001.04326022188, 67313.37366263552, 50038.42562895127, -187500.02235174447, 114518.20159175416, -187500.02235174447, -187500.02235174447, -187500.02235174447, 0.002, 0.968, -0.20400000000000001, 192.0, 0.0, 0.0, 0.0, 0.0, 0.0, 0.0, 0.0, 0.0, 0.0, 1.7184669251741035E9, 0.0, 2024-06-15 10:55:25.174
106.0, 73021.62921686521, 68257.77956936117, 49111.118806733946, -187500.02235174447, 114129.683569632, -187500.02235174447, -187500.02235174447, -187500.02235174447, 0.002, 0.968, -0.20400000000000001, 192.0, 0.0, 0.0, 0.0, 0.0, 0.0, 0.0, 0.0, 0.0, 0.0, 1.7184669251741123E9, 0.0, 2024-06-15 10:55:25.174
107.0, 72472.60331780951, 69627.56152481574, 53705.63163824459, -187500.02235174447, 117213.21847596389, -187500.02235174447, -187500.02235174447, -187500.02235174447, 0.002, 0.968, -0.20400000000000001, 192.0, 0.0, 0.0, 0.0, 0.0, 0.0, 0.0, 0.0, 0.0, 0.0, 1.7184669251741214E9, 0.0, 2024-06-15 10:55:25.174
108.0, 72384.1798167443, 68852.15715791669, 55080.107460034786, -187500.02235174447, 117932.69877823578, -187500.02235174447, -187500.02235174447, -187500.02235174447, 0.002, 0.968, -0.20400000000000001, 192.0, 0.0, 0.0, 0.0, 0.0, 0.0, 0.0, 0.0, 0.0, 0.0, 1.718466925174131E9, 0.0, 2024-06-15 10:55:25.174
109.0, 72915.54783768032, 67417.0634051637, 50836.181740305634, -187500.02235174447, 114999.18878068791, -187500.02235174447, -187500.02235174447, -187500.02235174447, 0.002, 0.968, -0.20400000000000001, 192.0, 0.0, 0.0, 0.0, 0.0, 0.0, 0.0, 0.0, 0.0, 0.0, 1.7184669251741397E9, 0.0, 2024-06-15 10:55:25.174
110.0, 73083.34238330631, 67947.1350249213, 48722.1537497227, -187500.02235174447, 113817.65321703593, -187500.02235174447, -187500.02235174447, -187500.02235174447, 0.002, 0.968, -0.20400000000000001, 192.0, 0.0, 0.0, 0.0, 0.0, 0.0, 0.0, 0.0, 0.0, 0.0, 1.7184669251741488E9, 0.0, 2024-06-15 10:55:25.174
111.0, 72560.64683921896, 69537.75221559432, 52896.833765129304, -187500.02235174447, 116656.28005937101, -187500.02235174447, -187500.02235174447, -187500.02235174447, -0.004, 0.966, -0.20400000000000001, 192.0, 255.0, 224.0, 30.0, 48.0, 249.0, 160.0, 0.0, 0.0, 0.0, 1.7184669251741576E9, 0.0, 2024-06-15 10:55:25.174
112.0, 72340.45980458973, 69100.84266672643, 55368.33320478597, -187500.02235174447, 118166.87800489402, -187500.02235174447, -187500.02235174447, -187500.02235174447, -0.004, 0.966, -0.20400000000000001, 192.0, 0.0, 0.0, 0.0, 0.0, 0.0, 0.0, 0.0, 0.0, 0.0, 1.718466925174167E9, 0.0, 2024-06-15 10:55:25.174
113.0, 72814.58500797571, 67585.26028218989, 51717.689838134036, -187500.02235174447, 115555.36723796932, -187500.02235174447, -187500.02235174447, -187500.02235174447, -0.004, 0.966, -0.20400000000000001, 192.0, 0.0, 0.0, 0.0, 0.0, 0.0, 0.0, 0.0, 0.0, 0.0, 1.7184669251741757E9, 0.0, 2024-06-15 10:55:25.174
114.0, 73115.59595055532, 67666.01713490691, 48565.110393179704, -187500.02235174447, 113669.79642746407, -187500.02235174447, -187500.02235174447, -187500.02235174447, -0.004, 0.966, -0.20400000000000001, 192.0, 0.0, 0.0, 0.0, 0.0, 0.0, 0.0, 0.0, 0.0, 0.0, 1.7184669251741848E9, 0.0, 2024-06-15 10:55:25.174
115.0, 72649.49502342881, 69355.27257386119, 52033.36352507633, -187500.02235174447, 116076.58756692262, -187500.02235174447, -187500.02235174447, -187500.02235174447, -0.004, 0.966, -0.20400000000000001, 192.0, 0.0, 0.0, 0.0, 0.0, 0.0, 0.0, 0.0, 0.0, 0.0, 1.718466925174194E9, 0.0, 2024-06-15 10:55:25.174
116.0, 72307.80390594053, 69297.94034933334, 55426.24657466967, -187500.02235174447, 118221.1033369426, -187500.02235174447, -187500.02235174447, -187500.02235174447, -0.004, 0.966, -0.20400000000000001, 192.0, 0.0, 0.0, 0.0, 0.0, 0.0, 0.0, 0.0, 0.0, 0.0, 1.718466925174203E9, 0.0, 2024-06-15 10:55:25.174
117.0, 72712.19166662593, 67801.02167141697, 52633.70902940143, -187500.02235174447, 116135.0597304177, -187500.02235174447, -187500.02235174447, -187500.02235174447, -0.004, 0.966, -0.20400000000000001, 192.0, 0.0, 0.0, 0.0, 0.0, 0.0, 0.0, 0.0, 0.0, 0.0, 1.7184669251742125E9, 0.0, 2024-06-15 10:55:25.174
118.0, 73128.15763093921, 67447.03709447826, 48651.164609332634, -187500.02235174447, 113666.3319070735, -187500.02235174447, -187500.02235174447, -187500.02235174447, -0.004, 0.966, -0.20400000000000001, 192.0, 0.0, 0.0, 0.0, 0.0, 0.0, 0.0, 0.0, 0.0, 0.0, 1.7184669251742215E9, 0.0, 2024-06-15 10:55:25.174
119.0, 72779.33630696968, 69132.78330955307, 51140.5230928091, -187500.02235174447, 115491.68711801614, -187500.02235174447, -187500.02235174447, -187500.02235174447, -0.004, 0.966, -0.20400000000000001, 192.0, 0.0, 0.0, 0.0, 0.0, 0.0, 0.0, 0.0, 0.0, 0.0, 1.7184669251742306E9, 0.0, 2024-06-15 10:55:25.174
120.0, 72375.79791257357, 69524.05059624322, 55232.94868862018, -187500.02235174447, 118143.74394938278, -187500.02235174447, -187500.02235174447, -187500.02235174447, -0.004, 0.966, -0.20400000000000001, 192.0, 0.0, 0.0, 0.0, 0.0, 0.0, 0.0, 0.0, 0.0, 0.0, 1.71846692517424E9, 0.0, 2024-06-15 10:55:25.174
121.0, 72640.8448983246, 68106.23474195418, 53460.14242889195, -187500.02235174447, 116722.32946423645, -187500.02235174447, -187500.02235174447, -187500.02235174447, -0.002, 0.968, -0.198, 192.0, 255.0, 240.0, 30.0, 64.0, 249.0, 208.0, 0.0, 0.0, 0.0, 1.718466925652354E9, 0.0, 2024-06-15 10:55:25.652
122.0, 73129.09640420633, 67342.02859902724, 48981.52339238208, -187500.02235174447, 113833.88058351047, -187500.02235174447, -187500.02235174447, -187500.02235174447, -0.002, 0.968, -0.198, 192.0, 0.0, 0.0, 0.0, 0.0, 0.0, 0.0, 0.0, 0.0, 0.0, 1.7184669256525195E9, 0.0, 2024-06-15 10:55:25.652
123.0, 72894.8054188258, 68844.33404735733, 50297.10236753254, -187500.02235174447, 114892.28038695817, -187500.02235174447, -187500.02235174447, -187500.02235174447, -0.002, 0.968, -0.198, 192.0, 0.0, 0.0, 0.0, 0.0, 0.0, 0.0, 0.0, 0.0, 0.0, 1.7184669256525316E9, 0.0, 2024-06-15 10:55:25.652
124.0, 72369.74058982618, 69596.64906223405, 54873.91261743458, -187500.02235174447, 117897.38302199639, -187500.02235174447, -187500.02235174447, -187500.02235174447, -0.002, 0.968, -0.198, 192.0, 0.0, 0.0, 0.0, 0.0, 0.0, 0.0, 0.0, 0.0, 0.0, 1.7184669256525428E9, 0.0, 2024-06-15 10:55:25.652
125.0, 72511.71887060629, 68348.90763150546, 54237.96078419218, -187500.02235174447, 117239.07944429868, -187500.02235174447, -187500.02235174447, -187500.02235174447, -0.002, 0.968, -0.198, 192.0, 0.0, 0.0, 0.0, 0.0, 0.0, 0.0, 0.0, 0.0, 0.0, 1.7184669256525717E9, 0.0, 2024-06-15 10:55:25.652
126.0, 73078.58146173734, 67279.7342872303, 49541.881625876624, -187500.02235174447, 114139.04895055879, -187500.02235174447, -187500.02235174447, -187500.02235174447, -0.002, 0.968, -0.198, 192.0, 0.0, 0.0, 0.0, 0.0, 0.0, 0.0, 0.0, 0.0, 0.0, 1.718466925652604E9, 0.0, 2024-06-15 10:55:25.652
127.0, 72982.15603615715, 68504.43106942548, 49609.495652853926, -187500.02235174447, 114402.06192756438, -187500.02235174447, -187500.02235174447, -187500.02235174447, -0.002, 0.968, -0.198, 192.0, 0.0, 0.0, 0.0, 0.0, 0.0, 0.0, 0.0, 0.0, 0.0, 1.7184669256526196E9, 0.0, 2024-06-15 10:55:25.652
128.0, 72425.57524747554, 69629.70729228345, 54341.24819532016, -187500.02235174447, 117549.03108466043, -187500.02235174447, -187500.02235174447, -187500.02235174447, -0.002, 0.968, -0.198, 192.0, 0.0, 0.0, 0.0, 0.0, 0.0, 0.0, 0.0, 0.0, 0.0, 1.7184669256526463E9, 0.0, 2024-06-15 10:55:25.652
129.0, 72443.79191920662, 68626.33748368472, 54852.14201833511, -187500.02235174447, 117671.96567916461, -187500.02235174447, -187500.02235174447, -187500.02235174447, -0.002, 0.968, -0.198, 192.0, 0.0, 0.0, 0.0, 0.0, 0.0, 0.0, 0.0, 0.0, 0.0, 1.7184669256526563E9, 0.0, 2024-06-15 10:55:25.652
130.0, 72978.73621925547, 67298.57680780612, 50299.38224546698, -187500.02235174447, 114576.87492094934, -187500.02235174447, -187500.02235174447, -187500.02235174447, -0.002, 0.968, -0.198, 192.0, 0.0, 0.0, 0.0, 0.0, 0.0, 0.0, 0.0, 0.0, 0.0, 1.7184669256526666E9, 0.0, 2024-06-15 10:55:25.652
131.0, 73016.77888831841, 68141.39403598238, 49099.00416123917, -187500.02235174447, 114002.74801287032, -187500.02235174447, -187500.02235174447, -187500.02235174447, -0.002, 0.968, -0.198, 192.0, 0.0, 0.0, 30.0, 96.0, 249.0, 160.0, 0.0, 0.0, 0.0, 1.7184669256526768E9, 0.0, 2024-06-15 10:55:25.652
132.0, 72491.78111455216, 69591.28464356478, 53628.83104429615, -187500.02235174447, 117044.30634311514, -187500.02235174447, -187500.02235174447, -187500.02235174447, -0.002, 0.968, -0.198, 192.0, 0.0, 0.0, 0.0, 0.0, 0.0, 0.0, 0.0, 0.0, 0.0, 1.7184669256526868E9, 0.0, 2024-06-15 10:55:25.652
133.0, 72369.33825842598, 68887.94230078964, 55261.089534889405, -187500.02235174447, 117939.85133646148, -187500.02235174447, -187500.02235174447, -187500.02235174447, -0.002, 0.968, -0.198, 192.0, 0.0, 0.0, 0.0, 0.0, 0.0, 0.0, 0.0, 0.0, 0.0, 1.7184669256526968E9, 0.0, 2024-06-15 10:55:25.652
134.0, 72869.57029933576, 67402.84769569013, 51129.88366244837, -187500.02235174447, 115067.89804314352, -187500.02235174447, -187500.02235174447, -187500.02235174447, -0.002, 0.968, -0.198, 192.0, 0.0, 0.0, 0.0, 0.0, 0.0, 0.0, 0.0, 0.0, 0.0, 1.7184669256527069E9, 0.0, 2024-06-15 10:55:25.652
135.0, 73061.19180455111, 67815.505601824, 48767.4607357336, -187500.02235174447, 113726.88278280292, -187500.02235174447, -187500.02235174447, -187500.02235174447, -0.002, 0.968, -0.198, 192.0, 0.0, 0.0, 0.0, 0.0, 0.0, 0.0, 0.0, 0.0, 0.0, 1.7184669256527169E9, 0.0, 2024-06-15 10:55:25.652
136.0, 72566.79356894417, 69455.69896169889, 52801.905906427615, -187500.02235174447, 116483.56812996486, -187500.02235174447, -187500.02235174447, -187500.02235174447, -0.002, 0.968, -0.198, 192.0, 0.0, 0.0, 0.0, 0.0, 0.0, 0.0, 0.0, 0.0, 0.0, 1.718466925652727E9, 0.0, 2024-06-15 10:55:25.652
137.0, 72300.04785061453, 69093.80186722301, 55523.119035138974, -187500.02235174447, 118158.83137689011, -187500.02235174447, -187500.02235174447, -187500.02235174447, -0.002, 0.968, -0.198, 192.0, 0.0, 0.0, 0.0, 0.0, 0.0, 0.0, 0.0, 0.0, 0.0, 1.7184669256527367E9, 0.0, 2024-06-15 10:55:25.652
138.0, 72783.06904829372, 67575.78314254084, 52050.4849613291, -187500.02235174447, 115651.81501529396, -187500.02235174447, -187500.02235174447, -187500.02235174447, -0.002, 0.968, -0.198, 192.0, 0.0, 0.0, 0.0, 0.0, 0.0, 0.0, 0.0, 0.0, 0.0, 1.7184669256527467E9, 0.0, 2024-06-15 10:55:25.652
139.0, 73120.40157561321, 67551.19622364, 48677.15968813416, -187500.02235174447, 113605.80338308853, -187500.02235174447, -187500.02235174447, -187500.02235174447, -0.002, 0.968, -0.198, 192.0, 0.0, 0.0, 0.0, 0.0, 0.0, 0.0, 0.0, 0.0, 0.0, 1.7184669256527567E9, 0.0, 2024-06-15 10:55:25.652
140.0, 72681.50272148881, 69253.61684007845, 51951.64554734773, -187500.02235174447, 115901.84162877103, -187500.02235174447, -187500.02235174447, -187500.02235174447, -0.002, 0.968, -0.198, 192.0, 0.0, 0.0, 0.0, 0.0, 0.0, 0.0, 0.0, 0.0, 0.0, 1.7184669256527667E9, 0.0, 2024-06-15 10:55:25.652
141.0, 72298.59498722493, 69296.353375477, 55550.54462558564, -187500.02235174447, 118200.67384251046, -187500.02235174447, -187500.02235174447, -187500.02235174447, -0.002, 0.968, -0.198, 192.0, 0.0, 0.0, 30.0, 64.0, 249.0, 128.0, 0.0, 0.0, 0.0, 1.7184669256527767E9, 0.0, 2024-06-15 10:55:25.652
142.0, 72646.25402048278, 67797.6018545153, 52985.279617938955, -187500.02235174447, 116255.2897638428, -187500.02235174447, -187500.02235174447, -187500.02235174447, -0.002, 0.968, -0.198, 192.0, 0.0, 0.0, 0.0, 0.0, 0.0, 0.0, 0.0, 0.0, 0.0, 1.7184669256527865E9, 0.0, 2024-06-15 10:55:25.652
143.0, 73096.5522642794, 67351.23751774282, 48844.03781223748, -187500.02235174447, 113638.32517127099, -187500.02235174447, -187500.02235174447, -187500.02235174447, -0.002, 0.968, -0.198, 192.0, 0.0, 0.0, 0.0, 0.0, 0.0, 0.0, 0.0, 0.0, 0.0, 1.7184669256527965E9, 0.0, 2024-06-15 10:55:25.652
144.0, 72780.16332151453, 69008.50761038157, 51045.61758585186, -187500.02235174447, 115267.07443798476, -187500.02235174447, -187500.02235174447, -187500.02235174447, -0.002, 0.968, -0.198, 192.0, 0.0, 0.0, 0.0, 0.0, 0.0, 0.0, 0.0, 0.0, 0.0, 1.718466925652806E9, 0.0, 2024-06-15 10:55:25.652
145.0, 72331.60851378542, 69475.43555205292, 55290.63854105932, -187500.02235174447, 118047.65379996941, -187500.02235174447, -187500.02235174447, -187500.02235174447, -0.002, 0.968, -0.198, 192.0, 0.0, 0.0, 0.0, 0.0, 0.0, 0.0, 0.0, 0.0, 0.0, 1.718466925652816E9, 0.0, 2024-06-15 10:55:25.652
146.0, 72587.20071163187, 68094.14244820386, 53778.319511213245, -187500.02235174447, 116806.0143954771, -187500.02235174447, -187500.02235174447, -187500.02235174447, -0.002, 0.968, -0.198, 192.0, 0.0, 0.0, 0.0, 0.0, 0.0, 0.0, 0.0, 0.0, 0.0, 1.7184669256528258E9, 0.0, 2024-06-15 10:55:25.652
147.0, 73072.92647039014, 67239.47879546629, 49233.382848904475, -187500.02235174447, 113859.51803440071, -187500.02235174447, -187500.02235174447, -187500.02235174447, -0.002, 0.968, -0.198, 192.0, 0.0, 0.0, 0.0, 0.0, 0.0, 0.0, 0.0, 0.0, 0.0, 1.718466925652836E9, 0.0, 2024-06-15 10:55:25.652
148.0, 72862.1495201766, 68686.97776639197, 50284.9206668044, -187500.02235174447, 114752.76079806815, -187500.02235174447, -187500.02235174447, -187500.02235174447, -0.002, 0.968, -0.198, 192.0, 0.0, 0.0, 0.0, 0.0, 0.0, 0.0, 0.0, 0.0, 0.0, 1.718466925652846E9, 0.0, 2024-06-15 10:55:25.652
149.0, 72357.26831642012, 69557.60056467063, 54907.03790271735, -187500.02235174447, 117804.06448889548, -187500.02235174447, -187500.02235174447, -187500.02235174447, -0.002, 0.968, -0.198, 192.0, 0.0, 0.0, 0.0, 0.0, 0.0, 0.0, 0.0, 0.0, 0.0, 1.7184669256528556E9, 0.0, 2024-06-15 10:55:25.652
150.0, 72475.68785854433, 68359.636468844, 54525.42656963188, -187500.02235174447, 117318.20461967048, -187500.02235174447, -187500.02235174447, -187500.02235174447, -0.002, 0.968, -0.198, 192.0, 0.0, 0.0, 0.0, 0.0, 0.0, 0.0, 0.0, 0.0, 0.0, 1.7184669256528654E9, 0.0, 2024-06-15 10:55:25.652
151.0, 73033.94502806009, 67212.29907420863, 49821.34548680133, -187500.02235174447, 114184.46769529197, -187500.02235174447, -187500.02235174447, -187500.02235174447, -0.002, 0.968, -0.198, 192.0, 0.0, 0.0, 0.0, 0.0, 0.0, 0.0, 0.0, 0.0, 0.0, 1.7184669256528752E9, 0.0, 2024-06-15 10:55:25.652
152.0, 73001.3785363887, 68381.45177143237, 49543.31213752177, -187500.02235174447, 114221.28101840986, -187500.02235174447, -187500.02235174447, -187500.02235174447, -0.002, 0.968, -0.198, 192.0, 0.0, 0.0, 30.0, 48.0, 249.0, 112.0, 0.0, 0.0, 0.0, 1.7184669256528847E9, 0.0, 2024-06-15 10:55:25.652
153.0, 72426.6481312094, 69594.97268139992, 54280.51850563509, -187500.02235174447, 117393.88762639614, -187500.02235174447, -187500.02235174447, -187500.02235174447, -0.002, 0.968, -0.198, 192.0, 0.0, 0.0, 0.0, 0.0, 0.0, 0.0, 0.0, 0.0, 0.0, 1.7184669256528945E9, 0.0, 2024-06-15 10:55:25.652
154.0, 72418.13211657193, 68653.38309447565, 55063.99185228251, -187500.02235174447, 117706.76734528154, -187500.02235174447, -187500.02235174447, -187500.02235174447, -0.002, 0.968, -0.198, 192.0, 0.0, 0.0, 0.0, 0.0, 0.0, 0.0, 0.0, 0.0, 0.0, 1.7184669256529045E9, 0.0, 2024-06-15 10:55:25.652
155.0, 72967.49329179445, 67283.44467680987, 50544.178550741504, -187500.02235174447, 114614.15763070079, -187500.02235174447, -187500.02235174447, -187500.02235174447, -0.002, 0.968, -0.198, 192.0, 0.0, 0.0, 0.0, 0.0, 0.0, 0.0, 0.0, 0.0, 0.0, 1.7184669256529143E9, 0.0, 2024-06-15 10:55:25.652
156.0, 73076.70391520309, 68055.1610058738, 49037.626270964895, -187500.02235174447, 113848.1186447285, -187500.02235174447, -187500.02235174447, -187500.02235174447, -0.002, 0.968, -0.198, 192.0, 0.0, 0.0, 0.0, 0.0, 0.0, 0.0, 0.0, 0.0, 0.0, 1.7184669256529248E9, 0.0, 2024-06-15 10:55:25.652
157.0, 72500.63240535646, 69532.36544518059, 53517.09467376408, -187500.02235174447, 116884.04433537059, -187500.02235174447, -187500.02235174447, -187500.02235174447, -0.002, 0.968, -0.198, 192.0, 0.0, 0.0, 0.0, 0.0, 0.0, 0.0, 0.0, 0.0, 0.0, 1.718466925652935E9, 0.0, 2024-06-15 10:55:25.652
158.0, 72366.99132525818, 68928.28719953146, 55404.18540289228, -187500.02235174447, 117976.7987700461, -187500.02235174447, -187500.02235174447, -187500.02235174447, -0.002, 0.968, -0.198, 192.0, 0.0, 0.0, 0.0, 0.0, 0.0, 0.0, 0.0, 0.0, 0.0, 1.718466925652945E9, 0.0, 2024-06-15 10:55:25.652
159.0, 72865.45757835598, 67432.50846058232, 51376.110479368035, -187500.02235174447, 115151.00182902836, -187500.02235174447, -187500.02235174447, -187500.02235174447, -0.002, 0.968, -0.198, 192.0, 0.0, 0.0, 0.0, 0.0, 0.0, 0.0, 0.0, 0.0, 0.0, 1.718466925652958E9, 0.0, 2024-06-15 10:55:25.652
160.0, 73077.10624660329, 67720.15305997766, 48758.900017607215, -187500.02235174447, 113636.84995613694, -187500.02235174447, -187500.02235174447, -187500.02235174447, -0.002, 0.968, -0.198, 192.0, 0.0, 0.0, 0.0, 0.0, 0.0, 0.0, 0.0, 0.0, 0.0, 1.7184669256529682E9, 0.0, 2024-06-15 10:55:25.652
161.0, 72587.55833954315, 69372.05873394712, 52638.00056433685, -187500.02235174447, 116300.90967427609, -187500.02235174447, -187500.02235174447, -187500.02235174447, -0.002, 0.968, -0.198, 192.0, 0.0, 0.0, 0.0, 0.0, 0.0, 0.0, 0.0, 0.0, 0.0, 1.718466925652979E9, 0.0, 2024-06-15 10:55:25.652
162.0, 72336.45884233223, 69138.818280556, 55535.88188122295, -187500.02235174447, 118115.5807513691, -187500.02235174447, -187500.02235174447, -187500.02235174447, -0.002, 0.972, -0.21, 192.0, 255.0, 240.0, 30.0, 96.0, 249.0, 112.0, 0.0, 0.0, 0.0, 1.718466925652989E9, 0.0, 2024-06-15 10:55:25.652
163.0, 72756.49282413637, 67610.54010516884, 52279.120955362436, -187500.02235174447, 115756.53293806707, -187500.02235174447, -187500.02235174447, -187500.02235174447, -0.002, 0.972, -0.21, 192.0, 0.0, 0.0, 0.0, 0.0, 0.0, 0.0, 0.0, 0.0, 0.0, 1.7184669256530194E9, 0.0, 2024-06-15 10:55:25.653
164.0, 73119.55220932391, 67481.21291175042, 48675.68447300011, -187500.02235174447, 113546.77242598205, -187500.02235174447, -187500.02235174447, -187500.02235174447, -0.002, 0.972, -0.21, 192.0, 0.0, 0.0, 0.0, 0.0, 0.0, 0.0, 0.0, 0.0, 0.0, 1.7184669256530335E9, 0.0, 2024-06-15 10:55:25.653
165.0, 72712.66105325951, 69190.65197594785, 51707.27392521786, -187500.02235174447, 115708.11905957689, -187500.02235174447, -187500.02235174447, -187500.02235174447, -0.002, 0.972, -0.21, 192.0, 0.0, 0.0, 0.0, 0.0, 0.0, 0.0, 0.0, 0.0, 0.0, 1.7184669256530592E9, 0.0, 2024-06-15 10:55:25.653
166.0, 72308.74267920764, 69332.45144277233, 55493.346511524505, -187500.02235174447, 118153.51166170975, -187500.02235174447, -187500.02235174447, -187500.02235174447, -0.002, 0.972, -0.21, 192.0, 0.0, 0.0, 0.0, 0.0, 0.0, 0.0, 0.0, 0.0, 0.0, 1.7184669256530895E9, 0.0, 2024-06-15 10:55:25.653
167.0, 72643.84003208161, 67848.58618361785, 53168.295701539006, -187500.02235174447, 116374.8715966787, -187500.02235174447, -187500.02235174447, -187500.02235174447, -0.002, 0.972, -0.21, 192.0, 0.0, 0.0, 0.0, 0.0, 0.0, 0.0, 0.0, 0.0, 0.0, 1.7184669256531E9, 0.0, 2024-06-15 10:55:25.653
168.0, 73122.83791575885, 67306.60108406557, 48872.513934673545, -187500.02235174447, 113653.18908133377, -187500.02235174447, -187500.02235174447, -187500.02235174447, -0.002, 0.972, -0.21, 192.0, 0.0, 0.0, 0.0, 0.0, 0.0, 0.0, 0.0, 0.0, 0.0, 1.71846692565311E9, 0.0, 2024-06-15 10:55:25.653
169.0, 72819.05535686677, 68917.64776917074, 50833.92421411565, -187500.02235174447, 115131.84638403016, -187500.02235174447, -187500.02235174447, -187500.02235174447, -0.002, 0.972, -0.21, 192.0, 0.0, 0.0, 0.0, 0.0, 0.0, 0.0, 0.0, 0.0, 0.0, 1.71846692565312E9, 0.0, 2024-06-15 10:55:25.653
170.0, 72334.46953707571, 69482.29753760071, 55207.02066505202, -187500.02235174447, 117988.66754635186, -187500.02235174447, -187500.02235174447, -187500.02235174447, -0.002, 0.972, -0.21, 192.0, 0.0, 0.0, 0.0, 0.0, 0.0, 0.0, 0.0, 0.0, 0.0, 1.7184669256531303E9, 0.0, 2024-06-15 10:55:25.653
171.0, 72533.51182145021, 68122.7303293622, 53964.64365299269, -187500.02235174447, 116935.05101621759, -187500.02235174447, -187500.02235174447, -187500.02235174447, -0.002, 0.972, -0.21, 192.0, 0.0, 0.0, 0.0, 0.0, 0.0, 0.0, 0.0, 0.0, 0.0, 1.7184669256531408E9, 0.0, 2024-06-15 10:55:25.653
172.0, 73061.41532199566, 67194.68589957785, 49319.8393964576, -187500.02235174447, 113903.97565412232, -187500.02235174447, -187500.02235174447, -187500.02235174447, -0.002, 0.972, -0.21, 192.0, 0.0, 0.0, 30.0, 80.0, 249.0, 128.0, 0.0, 0.0, 0.0, 1.7184669256531515E9, 0.0, 2024-06-15 10:55:25.653
173.0, 72903.83552358575, 68590.6417477896, 50012.63171584985, -187500.02235174447, 114568.58242375642, -187500.02235174447, -187500.02235174447, -187500.02235174447, -0.002, 0.972, -0.21, 192.0, 0.0, 0.0, 0.0, 0.0, 0.0, 0.0, 0.0, 0.0, 0.0, 1.7184669256531618E9, 0.0, 2024-06-15 10:55:25.653
174.0, 72374.00977301714, 69552.83964310166, 54678.49131566183, -187500.02235174447, 117670.19989135265, -187500.02235174447, -187500.02235174447, -187500.02235174447, -0.002, 0.972, -0.21, 192.0, 0.0, 0.0, 0.0, 0.0, 0.0, 0.0, 0.0, 0.0, 0.0, 1.7184669256531875E9, 0.0, 2024-06-15 10:55:25.653
175.0, 72454.52075654516, 68414.53235322623, 54555.10968626854, -187500.02235174447, 117367.62432666116, -187500.02235174447, -187500.02235174447, -187500.02235174447, -0.002, 0.972, -0.21, 192.0, 0.0, 0.0, 0.0, 0.0, 0.0, 0.0, 0.0, 0.0, 0.0, 1.7184669256532252E9, 0.0, 2024-06-15 10:55:25.653
176.0, 72964.76637897092, 67181.81129477159, 49902.19174649617, -187500.02235174447, 114255.23331823747, -187500.02235174447, -187500.02235174447, -187500.02235174447, -0.002, 0.972, -0.21, 192.0, 0.0, 0.0, 0.0, 0.0, 0.0, 0.0, 0.0, 0.0, 0.0, 1.718466925653281E9, 0.0, 2024-06-15 10:55:25.653
177.0, 72950.75183519743, 68244.30146745461, 49365.12403072406, -187500.02235174447, 114127.00136029738, -187500.02235174447, -187500.02235174447, -187500.02235174447, -0.002, 0.972, -0.21, 192.0, 0.0, 0.0, 0.0, 0.0, 0.0, 0.0, 0.0, 0.0, 0.0, 1.7184669256532965E9, 0.0, 2024-06-15 10:55:25.653
178.0, 72410.30900601257, 69548.70457037742, 54040.55017716291, -187500.02235174447, 117265.14157833357, -187500.02235174447, -187500.02235174447, -187500.02235174447, -0.002, 0.972, -0.21, 192.0, 0.0, 0.0, 0.0, 0.0, 0.0, 0.0, 0.0, 0.0, 0.0, 1.718466925653308E9, 0.0, 2024-06-15 10:55:25.653
179.0, 72363.19152870077, 68685.52490300237, 55087.61764617177, -187500.02235174447, 117767.98877334462, -187500.02235174447, -187500.02235174447, -187500.02235174447, -0.002, 0.972, -0.21, 192.0, 0.0, 0.0, 0.0, 0.0, 0.0, 0.0, 0.0, 0.0, 0.0, 1.7184669256533203E9, 0.0, 2024-06-15 10:55:25.653
180.0, 72896.16887523758, 67272.71583947132, 50646.84011302473, -187500.02235174447, 114715.3216261055, -187500.02235174447, -187500.02235174447, -187500.02235174447, -0.002, 0.972, -0.21, 192.0, 0.0, 0.0, 0.0, 0.0, 0.0, 0.0, 0.0, 0.0, 0.0, 1.7184669256533327E9, 0.0, 2024-06-15 10:55:25.653
181.0, 73025.13844074469, 67927.91252468975, 48852.95615827515, -187500.02235174447, 113751.8943848484, -187500.02235174447, -187500.02235174447, -187500.02235174447, -0.002, 0.972, -0.21, 192.0, 0.0, 0.0, 0.0, 0.0, 0.0, 0.0, 0.0, 0.0, 0.0, 1.718466925653344E9, 0.0, 2024-06-15 10:55:25.653
182.0, 72492.42931514136, 69479.43651431042, 53224.376228377376, -187500.02235174447, 116722.24005725862, -187500.02235174447, -187500.02235174447, -187500.02235174447, -0.002, 0.966, -0.20600000000000002, 192.0, 255.0, 240.0, 30.0, 48.0, 249.0, 144.0, 0.0, 0.0, 0.0, 1.718466925653355E9, 0.0, 2024-06-15 10:55:25.653
183.0, 72329.03806317307, 68950.5718887534, 55372.62473972139, -187500.02235174447, 117999.01640403467, -187500.02235174447, -187500.02235174447, -187500.02235174447, -0.002, 0.966, -0.20600000000000002, 192.0, 0.0, 0.0, 0.0, 0.0, 0.0, 0.0, 0.0, 0.0, 0.0, 1.7184669256533816E9, 0.0, 2024-06-15 10:55:25.653
184.0, 72837.58495302021, 67452.24505093636, 51480.15784980749, -187500.02235174447, 115256.61382157968, -187500.02235174447, -187500.02235174447, -187500.02235174447, -0.002, 0.966, -0.20600000000000002, 192.0, 0.0, 0.0, 0.0, 0.0, 0.0, 0.0, 0.0, 0.0, 0.0, 1.7184669256533923E9, 0.0, 2024-06-15 10:55:25.653
185.0, 73119.64161630173, 67664.65367849513, 48585.83046028978, -187500.02235174447, 113561.47987383365, -187500.02235174447, -187500.02235174447, -187500.02235174447, -0.002, 0.966, -0.20600000000000002, 192.0, 0.0, 0.0, 0.0, 0.0, 0.0, 0.0, 0.0, 0.0, 0.0, 1.7184669256534023E9, 0.0, 2024-06-15 10:55:25.653
186.0, 72634.87698255504, 69358.89355646295, 52325.16554894037, -187500.02235174447, 116163.37939064259, -187500.02235174447, -187500.02235174447, -187500.02235174447, -0.002, 0.966, -0.20600000000000002, 192.0, 0.0, 0.0, 0.0, 0.0, 0.0, 0.0, 0.0, 0.0, 0.0, 1.7184669256534135E9, 0.0, 2024-06-15 10:55:25.653
187.0, 72333.32959810848, 69198.34097604049, 55472.8946653479, -187500.02235174447, 118150.06949306364, -187500.02235174447, -187500.02235174447, -187500.02235174447, -0.002, 0.966, -0.20600000000000002, 192.0, 0.0, 0.0, 0.0, 0.0, 0.0, 0.0, 0.0, 0.0, 0.0, 1.7184669256534243E9, 0.0, 2024-06-15 10:55:25.653
188.0, 72761.47726314989, 67682.51272231493, 52357.352060956015, -187500.02235174447, 115865.34123007552, -187500.02235174447, -187500.02235174447, -187500.02235174447, -0.002, 0.966, -0.20600000000000002, 192.0, 0.0, 0.0, 0.0, 0.0, 0.0, 0.0, 0.0, 0.0, 0.0, 1.7184669256534348E9, 0.0, 2024-06-15 10:55:25.653
189.0, 73148.9671050271, 67457.52006262781, 48585.316370167304, -187500.02235174447, 113537.00471365509, -187500.02235174447, -187500.02235174447, -187500.02235174447, -0.002, 0.966, -0.20600000000000002, 192.0, 0.0, 0.0, 0.0, 0.0, 0.0, 0.0, 0.0, 0.0, 0.0, 1.7184669256534448E9, 0.0, 2024-06-15 10:55:25.653
190.0, 72746.18866994246, 69141.50048989063, 51411.44858735187, -187500.02235174447, 115562.58685142838, -187500.02235174447, -187500.02235174447, -187500.02235174447, -0.002, 0.966, -0.20600000000000002, 192.0, 0.0, 0.0, 0.0, 0.0, 0.0, 0.0, 0.0, 0.0, 0.0, 1.7184669256534555E9, 0.0, 2024-06-15 10:55:25.653
191.0, 72370.20997645974, 69407.10626925305, 55324.434378675745, -187500.02235174447, 118099.97923373929, -187500.02235174447, -187500.02235174447, -187500.02235174447, -0.002, 0.966, -0.20600000000000002, 192.0, 0.0, 0.0, 0.0, 0.0, 0.0, 0.0, 0.0, 0.0, 0.0, 1.7184669256534665E9, 0.0, 2024-06-15 10:55:25.653
192.0, 72692.63389022755, 67972.10192347788, 53204.0584926675, -187500.02235174447, 116460.34466747579, -187500.02235174447, -187500.02235174447, -187500.02235174447, -0.002, 0.966, -0.20600000000000002, 192.0, 0.0, 0.0, 0.0, 0.0, 0.0, 0.0, 0.0, 0.0, 0.0, 1.7184669256534765E9, 0.0, 2024-06-15 10:55:25.653
193.0, 73154.51033765201, 67319.16276444946, 48828.23512890758, -187500.02235174447, 113674.11031414394, -187500.02235174447, -187500.02235174447, -187500.02235174447, 0.004, 0.96, -0.196, 192.0, 0.0, 32.0, 30.0, 0.0, 249.0, 224.0, 0.0, 0.0, 0.0, 1.718466925653486E9, 0.0, 2024-06-15 10:55:25.653
194.0, 72875.91819476106, 68880.43211465265, 50536.31073669324, -187500.02235174447, 115000.52988535522, -187500.02235174447, -187500.02235174447, -187500.02235174447, 0.004, 0.96, -0.196, 192.0, 0.0, 0.0, 0.0, 0.0, 0.0, 0.0, 0.0, 0.0, 0.0, 1.718466925653496E9, 0.0, 2024-06-15 10:55:25.653
195.0, 72398.75315412917, 69546.2682302318, 54988.59941823476, -187500.02235174447, 117925.65797873236, -187500.02235174447, -187500.02235174447, -187500.02235174447, 0.004, 0.96, -0.196, 192.0, 0.0, 0.0, 0.0, 0.0, 0.0, 0.0, 0.0, 0.0, 0.0, 1.7184669256535058E9, 0.0, 2024-06-15 10:55:25.653
196.0, 72572.00152540226, 68241.39574067542, 53987.844763737296, -187500.02235174447, 117022.08870912656, -187500.02235174447, -187500.02235174447, -187500.02235174447, 0.004, 0.96, -0.196, 192.0, 0.0, 0.0, 0.0, 0.0, 0.0, 0.0, 0.0, 0.0, 0.0, 1.7184669256535156E9, 0.0, 2024-06-15 10:55:25.653
197.0, 73051.87112711325, 67208.34281544005, 49351.71298405087, -187500.02235174447, 113980.12804748156, -187500.02235174447, -187500.02235174447, -187500.02235174447, 0.004, 0.96, -0.196, 192.0, 0.0, 0.0, 0.0, 0.0, 0.0, 0.0, 0.0, 0.0, 0.0, 1.7184669256535256E9, 0.0, 2024-06-15 10:55:25.653
198.0, 72923.68387266206, 68523.07242430121, 49786.58852417333, -187500.02235174447, 114483.39992563725, -187500.02235174447, -187500.02235174447, -187500.02235174447, 0.004, 0.96, -0.196, 192.0, 0.0, 0.0, 0.0, 0.0, 0.0, 0.0, 0.0, 0.0, 0.0, 1.7184669256535351E9, 0.0, 2024-06-15 10:55:25.653
199.0, 72397.36734597295, 69577.20304455794, 54498.26920011869, -187500.02235174447, 117621.11546052879, -187500.02235174447, -187500.02235174447, -187500.02235174447, 0.004, 0.96, -0.196, 192.0, 0.0, 0.0, 0.0, 0.0, 0.0, 0.0, 0.0, 0.0, 0.0, 1.7184669256535451E9, 0.0, 2024-06-15 10:55:25.653
200.0, 72471.41867535337, 68499.89366530105, 54623.61778302405, -187500.02235174447, 117484.70276411806, -187500.02235174447, -187500.02235174447, -187500.02235174447, 0.004, 0.96, -0.196, 192.0, 0.0, 0.0, 0.0, 0.0, 0.0, 0.0, 0.0, 0.0, 0.0, 1.7184669256535597E9, 0.0, 2024-06-15 10:55:25.653
201.0, 73018.16469647465, 67221.53034466867, 49953.310186065464, -187500.02235174447, 114337.64420004419, -187500.02235174447, -187500.02235174447, -187500.02235174447, 0.004, 0.96, -0.196, 192.0, 0.0, 0.0, 0.0, 0.0, 0.0, 0.0, 0.0, 0.0, 0.0, 1.7184669256535695E9, 0.0, 2024-06-15 10:55:25.653
202.0, 73033.47564142653, 68195.75347849769, 49108.660114843864, -187500.02235174447, 114012.18044903046, -187500.02235174447, -187500.02235174447, -187500.02235174447, 0.004, 0.96, -0.196, 192.0, 0.0, 0.0, 0.0, 0.0, 0.0, 0.0, 0.0, 0.0, 0.0, 1.7184669256535792E9, 0.0, 2024-06-15 10:55:25.653
203.0, 72472.11157943148, 69556.93001233698, 53767.25539770787, -187500.02235174447, 117154.00870490179, -187500.02235174447, -187500.02235174447, -187500.02235174447, 0.004, 0.9560000000000001, -0.20400000000000001, 192.0, 0.0, 32.0, 29.0, 224.0, 249.0, 160.0, 0.0, 0.0, 0.0, 1.7184669256535892E9, 0.0, 2024-06-15 10:55:25.653
204.0, 72398.90961634036, 68766.16999699712, 55063.72363134905, -187500.02235174447, 117827.55617231801, -187500.02235174447, -187500.02235174447, -187500.02235174447, 0.004, 0.9560000000000001, -0.20400000000000001, 192.0, 0.0, 0.0, 0.0, 0.0, 0.0, 0.0, 0.0, 0.0, 0.0, 1.718466925653599E9, 0.0, 2024-06-15 10:55:25.653
205.0, 72923.70622440652, 67318.67102607143, 50739.55514902534, -187500.02235174447, 114839.10558689901, -187500.02235174447, -187500.02235174447, -187500.02235174447, 0.004, 0.9560000000000001, -0.20400000000000001, 192.0, 0.0, 0.0, 0.0, 0.0, 0.0, 0.0, 0.0, 0.0, 0.0, 1.7184669256536088E9, 0.0, 2024-06-15 10:55:25.653
206.0, 73093.17715086666, 67876.45880895363, 48681.83120272532, -187500.02235174447, 113696.6855760438, -187500.02235174447, -187500.02235174447, -187500.02235174447, 0.004, 0.9560000000000001, -0.20400000000000001, 192.0, 0.0, 0.0, 0.0, 0.0, 0.0, 0.0, 0.0, 0.0, 0.0, 1.7184669256536186E9, 0.0, 2024-06-15 10:55:25.653
207.0, 72549.69448443587, 69461.39865653499, 52922.202995086074, -187500.02235174447, 116591.41529696171, -187500.02235174447, -187500.02235174447, -187500.02235174447, 0.004, 0.9560000000000001, -0.20400000000000001, 192.0, 0.0, 0.0, 0.0, 0.0, 0.0, 0.0, 0.0, 0.0, 0.0, 1.7184669256536283E9, 0.0, 2024-06-15 10:55:25.653
208.0, 72321.4161183138, 68991.40852587325, 55340.63939340584, -187500.02235174447, 118070.05024791363, -187500.02235174447, -187500.02235174447, -187500.02235174447, 0.004, 0.9560000000000001, -0.20400000000000001, 192.0, 0.0, 0.0, 0.0, 0.0, 0.0, 0.0, 0.0, 0.0, 0.0, 1.718466925653638E9, 0.0, 2024-06-15 10:55:25.653
209.0, 72823.32454005773, 67477.10019077065, 51596.11870004162, -187500.02235174447, 115404.1353349847, -187500.02235174447, -187500.02235174447, -187500.02235174447, 0.004, 0.9560000000000001, -0.20400000000000001, 192.0, 0.0, 0.0, 0.0, 0.0, 0.0, 0.0, 0.0, 0.0, 0.0, 1.7184669256536477E9, 0.0, 2024-06-15 10:55:25.653
210.0, 73111.63969178674, 67573.5926715842, 48488.33215097572, -187500.02235174447, 113552.06978941796, -187500.02235174447, -187500.02235174447, -187500.02235174447, 0.004, 0.9560000000000001, -0.20400000000000001, 192.0, 0.0, 0.0, 0.0, 0.0, 0.0, 0.0, 0.0, 0.0, 0.0, 1.7184669256536577E9, 0.0, 2024-06-15 10:55:25.653
211.0, 72647.03633153872, 69274.2027967218, 52016.66677196822, -187500.02235174447, 116008.63826377848, -187500.02235174447, -187500.02235174447, -187500.02235174447, 0.004, 0.9560000000000001, -0.20400000000000001, 192.0, 0.0, 0.0, 0.0, 0.0, 0.0, 0.0, 0.0, 0.0, 0.0, 1.7184669256536674E9, 0.0, 2024-06-15 10:55:25.653
212.0, 72327.58519978347, 69219.91040943985, 55356.799704647034, -187500.02235174447, 118129.55059165366, -187500.02235174447, -187500.02235174447, -187500.02235174447, 0.004, 0.9560000000000001, -0.20400000000000001, 192.0, 0.0, 0.0, 0.0, 0.0, 0.0, 0.0, 0.0, 0.0, 0.0, 1.7184669256536777E9, 0.0, 2024-06-15 10:55:25.653
213.0, 72719.56774229619, 67701.7799260354, 52480.53252464921, -187500.02235174447, 115995.16016187194, -187500.02235174447, -187500.02235174447, -187500.02235174447, 0.002, 0.9540000000000001, -0.20800000000000002, 192.0, 0.0, 16.0, 29.0, 208.0, 249.0, 128.0, 0.0, 0.0, 0.0, 1.7184669256536875E9, 0.0, 2024-06-15 10:55:25.653
214.0, 73109.71744176358, 67347.21420374086, 48569.75955602641, -187500.02235174447, 113569.01241171508, -187500.02235174447, -187500.02235174447, -187500.02235174447, 0.002, 0.9540000000000001, -0.20800000000000002, 192.0, 0.0, 0.0, 0.0, 0.0, 0.0, 0.0, 0.0, 0.0, 0.0, 1.7184669256536973E9, 0.0, 2024-06-15 10:55:25.653
215.0, 72758.90681253753, 69041.85641310888, 51108.60480172692, -187500.02235174447, 115407.8457245643, -187500.02235174447, -187500.02235174447, -187500.02235174447, 0.002, 0.9540000000000001, -0.20800000000000002, 192.0, 0.0, 0.0, 0.0, 0.0, 0.0, 0.0, 0.0, 0.0, 0.0, 1.7184669256537073E9, 0.0, 2024-06-15 10:55:25.653
216.0, 72321.72904273619, 69388.53196961069, 55177.31519667092, -187500.02235174447, 118042.80347142262, -187500.02235174447, -187500.02235174447, -187500.02235174447, 0.002, 0.9540000000000001, -0.20800000000000002, 192.0, 0.0, 0.0, 0.0, 0.0, 0.0, 0.0, 0.0, 0.0, 0.0, 1.718466925653718E9, 0.0, 2024-06-15 10:55:25.653
217.0, 72618.00141549128, 67980.01444101507, 53305.91539215033, -187500.02235174447, 116569.13060773976, -187500.02235174447, -187500.02235174447, -187500.02235174447, 0.002, 0.9540000000000001, -0.20800000000000002, 192.0, 0.0, 0.0, 0.0, 0.0, 0.0, 0.0, 0.0, 0.0, 0.0, 1.718466925653728E9, 0.0, 2024-06-15 10:55:25.653
218.0, 73103.1013254048, 67240.05994082212, 48818.959154958626, -187500.02235174447, 113685.21913113823, -187500.02235174447, -187500.02235174447, -187500.02235174447, 0.002, 0.9540000000000001, -0.20800000000000002, 192.0, 0.0, 0.0, 0.0, 0.0, 0.0, 0.0, 0.0, 0.0, 0.0, 1.7184669256537385E9, 0.0, 2024-06-15 10:55:25.653
219.0, 72862.64125855462, 68767.84637783127, 50211.02579963515, -187500.02235174447, 114799.54299921311, -187500.02235174447, -187500.02235174447, -187500.02235174447, 0.002, 0.9540000000000001, -0.20800000000000002, 192.0, 0.0, 0.0, 0.0, 0.0, 0.0, 0.0, 0.0, 0.0, 0.0, 1.7184669256537488E9, 0.0, 2024-06-15 10:55:25.653
220.0, 72336.28002837658, 69521.72601481987, 54809.74075910339, -187500.02235174447, 117843.73883530365, -187500.02235174447, -187500.02235174447, -187500.02235174447, 0.002, 0.9540000000000001, -0.20800000000000002, 192.0, 0.0, 0.0, 0.0, 0.0, 0.0, 0.0, 0.0, 0.0, 0.0, 1.7184669256537588E9, 0.0, 2024-06-15 10:55:25.653
221.0, 72512.25531247322, 68266.38499097645, 54081.029186371474, -187500.02235174447, 117125.8008033992, -187500.02235174447, -187500.02235174447, -187500.02235174447, 0.002, 0.9540000000000001, -0.20800000000000002, 192.0, 0.0, 0.0, 0.0, 0.0, 0.0, 0.0, 0.0, 0.0, 0.0, 1.7184669256537697E9, 0.0, 2024-06-15 10:55:25.653
222.0, 73069.48430174403, 67196.07170773408, 49358.5526178542, -187500.02235174447, 114002.97153031487, -187500.02235174447, -187500.02235174447, -187500.02235174447, 0.002, 0.9540000000000001, -0.20800000000000002, 192.0, 0.0, 0.0, 0.0, 0.0, 0.0, 0.0, 0.0, 0.0, 0.0, 1.7184669256537836E9, 0.0, 2024-06-15 10:55:25.653
223.0, 72991.70023103956, 68455.70426651291, 49460.56597954821, -187500.02235174447, 114285.38582150768, -187500.02235174447, -187500.02235174447, -187500.02235174447, 0.004, 0.964, -0.20600000000000002, 192.0, 0.0, 32.0, 30.0, 32.0, 249.0, 144.0, 0.0, 0.0, 0.0, 1.718466925653794E9, 0.0, 2024-06-15 10:55:25.653
224.0, 72425.26232305316, 69584.40030627255, 54197.079443583425, -187500.02235174447, 117449.11878694521, -187500.02235174447, -187500.02235174447, -187500.02235174447, 0.004, 0.964, -0.20600000000000002, 192.0, 0.0, 0.0, 0.0, 0.0, 0.0, 0.0, 0.0, 0.0, 0.0, 1.7184669256538243E9, 0.0, 2024-06-15 10:55:25.653
225.0, 72412.67829092483, 68535.49999421835, 54684.19101049793, -187500.02235174447, 117571.6063465603, -187500.02235174447, -187500.02235174447, -187500.02235174447, 0.004, 0.964, -0.20600000000000002, 192.0, 0.0, 0.0, 0.0, 0.0, 0.0, 0.0, 0.0, 0.0, 0.0, 1.7184669256538348E9, 0.0, 2024-06-15 10:55:25.653
226.0, 72983.45243733555, 67217.12705101098, 50061.894960629346, -187500.02235174447, 114440.4622245386, -187500.02235174447, -187500.02235174447, -187500.02235174447, 0.004, 0.964, -0.20600000000000002, 192.0, 0.0, 0.0, 0.0, 0.0, 0.0, 0.0, 0.0, 0.0, 0.0, 1.7184669256538448E9, 0.0, 2024-06-15 10:55:25.653
227.0, 73045.81380436585, 68114.21431472473, 48916.07748461694, -187500.02235174447, 113916.49263101729, -187500.02235174447, -187500.02235174447, -187500.02235174447, 0.004, 0.964, -0.20600000000000002, 192.0, 0.0, 0.0, 0.0, 0.0, 0.0, 0.0, 0.0, 0.0, 0.0, 1.7184669256538548E9, 0.0, 2024-06-15 10:55:25.653
228.0, 72505.77330658118, 69559.25459376033, 53502.43192940139, -187500.02235174447, 117013.25977006672, -187500.02235174447, -187500.02235174447, -187500.02235174447, 0.004, 0.964, -0.20600000000000002, 192.0, 0.0, 0.0, 0.0, 0.0, 0.0, 0.0, 0.0, 0.0, 0.0, 1.7184669256538649E9, 0.0, 2024-06-15 10:55:25.653
229.0, 72397.16618027285, 68852.06775093886, 55073.111364020275, -187500.02235174447, 117875.3665537079, -187500.02235174447, -187500.02235174447, -187500.02235174447, 0.004, 0.964, -0.20600000000000002, 192.0, 0.0, 0.0, 0.0, 0.0, 0.0, 0.0, 0.0, 0.0, 0.0, 1.718466925653875E9, 0.0, 2024-06-15 10:55:25.653
230.0, 72910.8092678558, 67379.9595093679, 50853.72785970305, -187500.02235174447, 114925.76330015223, -187500.02235174447, -187500.02235174447, -187500.02235174447, 0.004, 0.964, -0.20600000000000002, 192.0, 0.0, 0.0, 0.0, 0.0, 0.0, 0.0, 0.0, 0.0, 0.0, 1.7184669256538856E9, 0.0, 2024-06-15 10:55:25.653
231.0, 73086.24811008551, 67819.68537803715, 48537.72950622196, -187500.02235174447, 113611.74894711364, -187500.02235174447, -187500.02235174447, -187500.02235174447, 0.004, 0.964, -0.20600000000000002, 192.0, 0.0, 0.0, 0.0, 0.0, 0.0, 0.0, 0.0, 0.0, 0.0, 1.7184669256539118E9, 0.0, 2024-06-15 10:55:25.653
232.0, 72578.63999350548, 69461.13043560153, 52648.93056737549, -187500.02235174447, 116438.64112360969, -187500.02235174447, -187500.02235174447, -187500.02235174447, 0.004, 0.964, -0.20600000000000002, 192.0, 0.0, 0.0, 0.0, 0.0, 0.0, 0.0, 0.0, 0.0, 0.0, 1.7184669256539216E9, 0.0, 2024-06-15 10:55:25.653
233.0, 72352.23917391768, 69100.8650184709, 55272.73479375062, -187500.02235174447, 118050.42541628188, -187500.02235174447, -187500.02235174447, -187500.02235174447, 0.004, 0.964, -0.20600000000000002, 192.0, 0.0, 0.0, 0.0, 0.0, 0.0, 0.0, 0.0, 0.0, 0.0, 1.7184669256539311E9, 0.0, 2024-06-15 10:55:25.653
234.0, 72789.57340593022, 67553.27493587435, 51758.1688473426, -187500.02235174447, 115534.13308073678, -187500.02235174447, -187500.02235174447, -187500.02235174447, -0.004, 0.966, -0.21, 192.0, 255.0, 224.0, 30.0, 48.0, 249.0, 112.0, 0.0, 0.0, 0.0, 1.7184669256539412E9, 0.0, 2024-06-15 10:55:25.653
235.0, 73109.22570338556, 67538.7910054673, 48445.90853999955, -187500.02235174447, 113541.00567591259, -187500.02235174447, -187500.02235174447, -187500.02235174447, -0.004, 0.966, -0.21, 192.0, 0.0, 0.0, 0.0, 0.0, 0.0, 0.0, 0.0, 0.0, 0.0, 1.7184669256539507E9, 0.0, 2024-06-15 10:55:25.653
236.0, 72689.86227391509, 69275.20862522228, 51749.31755653829, -187500.02235174447, 115856.26642182666, -187500.02235174447, -187500.02235174447, -187500.02235174447, -0.004, 0.966, -0.21, 192.0, 0.0, 0.0, 0.0, 0.0, 0.0, 0.0, 0.0, 0.0, 0.0, 1.7184669256539605E9, 0.0, 2024-06-15 10:55:25.653
237.0, 72311.67075773129, 69304.24354126972, 55291.28674164853, -187500.02235174447, 118109.32226292162, -187500.02235174447, -187500.02235174447, -187500.02235174447, -0.004, 0.966, -0.21, 192.0, 0.0, 0.0, 0.0, 0.0, 0.0, 0.0, 0.0, 0.0, 0.0, 1.7184669256539705E9, 0.0, 2024-06-15 10:55:25.653
238.0, 72682.9555848784, 67805.44731681912, 52663.10157336016, -187500.02235174447, 116141.47468107638, -187500.02235174447, -187500.02235174447, -187500.02235174447, -0.004, 0.966, -0.21, 192.0, 0.0, 0.0, 0.0, 0.0, 0.0, 0.0, 0.0, 0.0, 0.0, 1.7184669256539829E9, 0.0, 2024-06-15 10:55:25.653
239.0, 73127.39767162772, 67369.34243075163, 48555.16386689709, -187500.02235174447, 113563.40212385681, -187500.02235174447, -187500.02235174447, -187500.02235174447, -0.004, 0.966, -0.21, 192.0, 0.0, 0.0, 0.0, 0.0, 0.0, 0.0, 0.0, 0.0, 0.0, 1.718466925653993E9, 0.0, 2024-06-15 10:55:25.653
240.0, 72796.54715020028, 69024.73497685611, 50843.535464231434, -187500.02235174447, 115242.1522429171, -187500.02235174447, -187500.02235174447, -187500.02235174447, -0.004, 0.966, -0.21, 192.0, 0.0, 0.0, 0.0, 0.0, 0.0, 0.0, 0.0, 0.0, 0.0, 1.7184669256540031E9, 0.0, 2024-06-15 10:55:25.654
241.0, 72357.93886875379, 69486.74553474732, 55056.682831845625, -187500.02235174447, 117989.91924404136, -187500.02235174447, -187500.02235174447, -187500.02235174447, -0.004, 0.966, -0.21, 192.0, 0.0, 0.0, 0.0, 0.0, 0.0, 0.0, 0.0, 0.0, 0.0, 1.7184669261325405E9, 0.0, 2024-06-15 10:55:26.132
242.0, 72600.4329443494, 68092.26490166961, 53478.0238244562, -187500.02235174447, 116702.12348724884, -187500.02235174447, -187500.02235174447, -187500.02235174447, -0.004, 0.966, -0.21, 192.0, 0.0, 0.0, 0.0, 0.0, 0.0, 0.0, 0.0, 0.0, 0.0, 1.7184669261327124E9, 0.0, 2024-06-15 10:55:26.132
243.0, 73090.003203154, 67246.29607752516, 48928.080371389435, -187500.02235174447, 113760.96919309726, -187500.02235174447, -187500.02235174447, -187500.02235174447, -0.004, 0.966, -0.21, 192.0, 0.0, 0.0, 0.0, 0.0, 0.0, 0.0, 0.0, 0.0, 0.0, 1.718466926132733E9, 0.0, 2024-06-15 10:55:26.132
244.0, 72891.67617460206, 68718.96311270751, 50035.69871612772, -187500.02235174447, 114706.09035564547, -187500.02235174447, -187500.02235174447, -187500.02235174447, -0.004, 0.966, -0.21, 192.0, 0.0, 0.0, 30.0, 48.0, 249.0, 144.0, 0.0, 0.0, 0.0, 1.7184669261327498E9, 0.0, 2024-06-15 10:55:26.132
245.0, 72389.09720052448, 69589.27298656381, 54673.9539115374, -187500.02235174447, 117771.36388675738, -187500.02235174447, -187500.02235174447, -187500.02235174447, -0.004, 0.966, -0.21, 192.0, 0.0, 0.0, 0.0, 0.0, 0.0, 0.0, 0.0, 0.0, 0.0, 1.7184669261327703E9, 0.0, 2024-06-15 10:55:26.132
246.0, 72521.71010037781, 68392.2923674932, 54203.82967040893, -187500.02235174447, 117224.48375516936, -187500.02235174447, -187500.02235174447, -187500.02235174447, -0.004, 0.966, -0.21, 192.0, 0.0, 0.0, 0.0, 0.0, 0.0, 0.0, 0.0, 0.0, 0.0, 1.7184669261327896E9, 0.0, 2024-06-15 10:55:26.132
247.0, 73057.12378706023, 67244.79851064665, 49506.14118649259, -187500.02235174447, 114107.0859559877, -187500.02235174447, -187500.02235174447, -187500.02235174447, -0.004, 0.966, -0.21, 192.0, 0.0, 0.0, 0.0, 0.0, 0.0, 0.0, 0.0, 0.0, 0.0, 1.7184669261328082E9, 0.0, 2024-06-15 10:55:26.132
248.0, 72994.42714386311, 68403.66940542095, 49332.781056497224, -187500.02235174447, 114211.960340972, -187500.02235174447, -187500.02235174447, -187500.02235174447, -0.004, 0.966, -0.21, 192.0, 0.0, 0.0, 0.0, 0.0, 0.0, 0.0, 0.0, 0.0, 0.0, 1.718466926132828E9, 0.0, 2024-06-15 10:55:26.132
249.0, 72475.15141667741, 69635.36228363065, 54051.74840113502, -187500.02235174447, 117370.46299820697, -187500.02235174447, -187500.02235174447, -187500.02235174447, -0.004, 0.966, -0.21, 192.0, 0.0, 0.0, 0.0, 0.0, 0.0, 0.0, 0.0, 0.0, 0.0, 1.718466926132847E9, 0.0, 2024-06-15 10:55:26.132
250.0, 72447.85993669748, 68672.7620569184, 54768.83706675018, -187500.02235174447, 117642.05904508341, -187500.02235174447, -187500.02235174447, -187500.02235174447, -0.004, 0.966, -0.21, 192.0, 0.0, 0.0, 0.0, 0.0, 0.0, 0.0, 0.0, 0.0, 0.0, 1.7184669261328702E9, 0.0, 2024-06-15 10:55:26.132
251.0, 72981.1278559122, 67286.12688614451, 50226.33674458704, -187500.02235174447, 114537.46879547463, -187500.02235174447, -187500.02235174447, -187500.02235174447, -0.004, 0.966, -0.21, 192.0, 0.0, 0.0, 0.0, 0.0, 0.0, 0.0, 0.0, 0.0, 0.0, 1.7184669261329098E9, 0.0, 2024-06-15 10:55:26.132
252.0, 73089.33265082033, 68079.90438698583, 48793.54522151294, -187500.02235174447, 113816.78149900217, -187500.02235174447, -187500.02235174447, -187500.02235174447, -0.004, 0.966, -0.21, 192.0, 0.0, 0.0, 0.0, 0.0, 0.0, 0.0, 0.0, 0.0, 0.0, 1.7184669261329257E9, 0.0, 2024-06-15 10:55:26.132
253.0, 72556.73528393928, 69585.51789349531, 53289.799784398056, -187500.02235174447, 116869.80627415256, -187500.02235174447, -187500.02235174447, -187500.02235174447, -0.004, 0.966, -0.21, 192.0, 0.0, 0.0, 0.0, 0.0, 0.0, 0.0, 0.0, 0.0, 0.0, 1.718466926132959E9, 0.0, 2024-06-15 10:55:26.132
254.0, 72404.96693908775, 68940.24538281506, 55148.883777723764, -187500.02235174447, 117944.9922376862, -187500.02235174447, -187500.02235174447, -187500.02235174447, -0.004, 0.966, -0.21, 192.0, 0.0, 0.0, 30.0, 64.0, 249.0, 160.0, 0.0, 0.0, 0.0, 1.718466926132978E9, 0.0, 2024-06-15 10:55:26.132
255.0, 72888.83750305623, 67413.73299523986, 51102.07809234597, -187500.02235174447, 115103.19144763846, -187500.02235174447, -187500.02235174447, -187500.02235174447, -0.004, 0.966, -0.21, 192.0, 0.0, 0.0, 0.0, 0.0, 0.0, 0.0, 0.0, 0.0, 0.0, 1.7184669261329975E9, 0.0, 2024-06-15 10:55:26.132
0.0, 73122.56969482538, 67751.22198477054, 48517.03179085634, -187500.02235174447, 113599.70135685222, -187500.02235174447, -187500.02235174447, -187500.02235174447, -0.004, 0.966, -0.21, 192.0, 0.0, 0.0, 0.0, 0.0, 0.0, 0.0, 0.0, 0.0, 0.0, 1.7184669261330156E9, 0.0, 2024-06-15 10:55:26.133
1.0, 72647.88569782802, 69444.1431098155, 52455.990309237284, -187500.02235174447, 116314.47718316046, -187500.02235174447, -187500.02235174447, -187500.02235174447, -0.004, 0.966, -0.21, 192.0, 0.0, 0.0, 0.0, 0.0, 0.0, 0.0, 0.0, 0.0, 0.0, 1.7184669261330335E9, 0.0, 2024-06-15 10:55:26.133
2.0, 72375.57439512902, 69167.09323729196, 55334.98440205865, -187500.02235174447, 118104.53898960818, -187500.02235174447, -187500.02235174447, -187500.02235174447, -0.004, 0.966, -0.21, 192.0, 0.0, 0.0, 0.0, 0.0, 0.0, 0.0, 0.0, 0.0, 0.0, 1.718466926133052E9, 0.0, 2024-06-15 10:55:26.133
3.0, 72819.25652256687, 67631.08135832327, 51985.73195764208, -187500.02235174447, 115683.1074575314, -187500.02235174447, -187500.02235174447, -187500.02235174447, -0.004, 0.966, -0.21, 192.0, 0.0, 0.0, 0.0, 0.0, 0.0, 0.0, 0.0, 0.0, 0.0, 1.7184669261330712E9, 0.0, 2024-06-15 10:55:26.133
4.0, 73173.79989311694, 67530.49850827438, 48440.65588005255, -187500.02235174447, 113522.36432103686, -187500.02235174447, -187500.02235174447, -187500.02235174447, -0.004, 0.966, -0.21, 192.0, 0.0, 0.0, 0.0, 0.0, 0.0, 0.0, 0.0, 0.0, 0.0, 1.718466926133088E9, 0.0, 2024-06-15 10:55:26.133
5.0, 72748.20032694344, 69256.05318022409, 51520.90507994951, -187500.02235174447, 115696.51850420458, -187500.02235174447, -187500.02235174447, -187500.02235174447, -0.004, 0.966, -0.21, 192.0, 0.0, 0.0, 0.0, 0.0, 0.0, 0.0, 0.0, 0.0, 0.0, 1.7184669261331153E9, 0.0, 2024-06-15 10:55:26.133
6.0, 72350.04870296105, 69383.92751025289, 55248.729020205625, -187500.02235174447, 118089.25039640075, -187500.02235174447, -187500.02235174447, -187500.02235174447, -0.004, 0.966, -0.21, 192.0, 0.0, 0.0, 0.0, 0.0, 0.0, 0.0, 0.0, 0.0, 0.0, 1.718466926133134E9, 0.0, 2024-06-15 10:55:26.133
7.0, 72674.19370105192, 67877.30817524293, 52883.199201011565, -187500.02235174447, 116296.23815968493, -187500.02235174447, -187500.02235174447, -187500.02235174447, -0.004, 0.966, -0.21, 192.0, 0.0, 0.0, 0.0, 0.0, 0.0, 0.0, 0.0, 0.0, 0.0, 1.718466926133154E9, 0.0, 2024-06-15 10:55:26.133
8.0, 73157.21489873111, 67348.24238398581, 48641.463952239035, -187500.02235174447, 113615.12406052639, -187500.02235174447, -187500.02235174447, -187500.02235174447, -0.002, 0.962, -0.21, 192.0, 255.0, 240.0, 30.0, 16.0, 249.0, 112.0, 0.0, 0.0, 0.0, 1.7184669261331725E9, 0.0, 2024-06-15 10:55:26.133
9.0, 72847.55383104728, 68992.50376135156, 50668.99069177994, -187500.02235174447, 115130.3264654072, -187500.02235174447, -187500.02235174447, -187500.02235174447, -0.002, 0.962, -0.21, 192.0, 0.0, 0.0, 0.0, 0.0, 0.0, 0.0, 0.0, 0.0, 0.0, 1.718466926133191E9, 0.0, 2024-06-15 10:55:26.133
10.0, 72354.4296448743, 69534.64532311504, 55034.867529257244, -187500.02235174447, 117987.66171785137, -187500.02235174447, -187500.02235174447, -187500.02235174447, -0.002, 0.962, -0.21, 192.0, 0.0, 0.0, 0.0, 0.0, 0.0, 0.0, 0.0, 0.0, 0.0, 1.7184669261332102E9, 0.0, 2024-06-15 10:55:26.133
11.0, 72589.81586573314, 68181.02367890163, 53696.02038812881, -187500.02235174447, 116863.14545430487, -187500.02235174447, -187500.02235174447, -187500.02235174447, -0.002, 0.962, -0.21, 192.0, 0.0, 0.0, 0.0, 0.0, 0.0, 0.0, 0.0, 0.0, 0.0, 1.7184669261332288E9, 0.0, 2024-06-15 10:55:26.133
12.0, 73154.30917195191, 67289.50199955727, 49018.068494566505, -187500.02235174447, 113810.97004544378, -187500.02235174447, -187500.02235174447, -187500.02235174447, -0.002, 0.962, -0.21, 192.0, 0.0, 0.0, 0.0, 0.0, 0.0, 0.0, 0.0, 0.0, 0.0, 1.7184669261332483E9, 0.0, 2024-06-15 10:55:26.133
13.0, 72978.80327448885, 68707.94370269105, 49821.72546645707, -187500.02235174447, 114551.81861541494, -187500.02235174447, -187500.02235174447, -187500.02235174447, -0.002, 0.962, -0.21, 192.0, 0.0, 0.0, 0.0, 0.0, 0.0, 0.0, 0.0, 0.0, 0.0, 1.718466926133268E9, 0.0, 2024-06-15 10:55:26.133
14.0, 72400.85421810797, 69623.26998988033, 54552.919215311915, -187500.02235174447, 117696.48554283209, -187500.02235174447, -187500.02235174447, -187500.02235174447, -0.002, 0.962, -0.21, 192.0, 0.0, 0.0, 0.0, 0.0, 0.0, 0.0, 0.0, 0.0, 0.0, 1.718466926133288E9, 0.0, 2024-06-15 10:55:26.133
15.0, 72480.47113185778, 68444.17076637397, 54401.419091393844, -187500.02235174447, 117372.98874533043, -187500.02235174447, -187500.02235174447, -187500.02235174447, -0.002, 0.962, -0.21, 192.0, 0.0, 0.0, 0.0, 0.0, 0.0, 0.0, 0.0, 0.0, 0.0, 1.7184669261333067E9, 0.0, 2024-06-15 10:55:26.133
16.0, 73022.23271396551, 67217.68584462236, 49716.82872972831, -187500.02235174447, 114237.8660127957, -187500.02235174447, -187500.02235174447, -187500.02235174447, -0.002, 0.962, -0.21, 192.0, 0.0, 0.0, 0.0, 0.0, 0.0, 0.0, 0.0, 0.0, 0.0, 1.7184669261333263E9, 0.0, 2024-06-15 10:55:26.133
17.0, 73018.8352488083, 68313.43541305487, 49227.12436045699, -187500.02235174447, 114133.34925572269, -187500.02235174447, -187500.02235174447, -187500.02235174447, -0.002, 0.962, -0.21, 192.0, 0.0, 0.0, 0.0, 0.0, 0.0, 0.0, 0.0, 0.0, 0.0, 1.7184669261333463E9, 0.0, 2024-06-15 10:55:26.133
18.0, 72480.29231790213, 69618.2855508668, 53919.470777448514, -187500.02235174447, 117279.55845350724, -187500.02235174447, -187500.02235174447, -187500.02235174447, -0.002, 0.962, -0.21, 192.0, 0.0, 0.0, 0.0, 0.0, 0.0, 0.0, 0.0, 0.0, 0.0, 1.7184669261333668E9, 0.0, 2024-06-15 10:55:26.133
