%OpenBCI Raw EXG Data
%Number of channels = 8
%Sample Rate = 250 Hz
%Board = OpenBCI_GUI$BoardCytonSerial
Sample Index, EXG Channel 0, EXG Channel 1, EXG Channel 2, EXG Channel 3, EXG Channel 4, EXG Channel 5, EXG Channel 6, EXG Channel 7, Accel Channel 0, Accel Channel 1, Accel Channel 2, Other, Other, Other, Other, Other, Other, Other, Analog Channel 0, Analog Channel 1, Analog Channel 2, Timestamp, Other, Timestamp (Formatted)
44.0, -75306.4692385756, -146543.9822130182, 79009.7956669087, -187500.02235174447, 93499.42576878378, -187500.02235174447, -187500.02235174447, -187500.02235174447, 0.0, 0.0, 0.0, 192.0, 0.0, 0.0, 0.0, 0.0, 0.0, 0.0, 0.0, 0.0, 0.0, 1.7184660736019733E9, 0.0, 2024-06-15 10:41:13.601
45.0, -75242.05151105541, -146202.87224088577, 78972.24473622379, -187500.02235174447, 92821.74322864333, -187500.02235174447, -187500.02235174447, -187500.02235174447, 0.0, 0.0, 0.0, 192.0, 0.0, 0.0, 0.0, 0.0, 0.0, 0.0, 0.0, 0.0, 0.0, 1.7184660736019983E9, 0.0, 2024-06-15 10:41:13.601
46.0, -80116.8552180356, -152245.84516833368, 74148.24654439051, -187500.02235174447, 89104.93869840368, -187500.02235174447, -187500.02235174447, -187500.02235174447, 0.0, 0.0, 0.0, 192.0, 0.0, 0.0, 0.0, 0.0, 0.0, 0.0, 0.0, 0.0, 0.0, 1.7184660736020184E9, 0.0, 2024-06-15 10:41:13.602
47.0, -80817.40359275385, -153401.83268807325, 73566.69885715233, -187500.02235174447, 89324.25401499915, -187500.02235174447, -187500.02235174447, -187500.02235174447, 0.0, 0.0, 0.0, 192.0, 0.0, 0.0, 0.0, 0.0, 0.0, 0.0, 0.0, 0.0, 0.0, 1.7184660736020346E9, 0.0, 2024-06-15 10:41:13.602
48.0, -75962.89526973906, -147379.4233655242, 78377.19659533461, -187500.02235174447, 93080.91170560262, -187500.02235174447, -187500.02235174447, -187500.02235174447, 0.006, 0.966, -0.182, 192.0, 0.0, 48.0, 30.0, 48.0, 250.0, 80.0, 0.0, 0.0, 0.0, 1.7184660736020525E9, 0.0, 2024-06-15 10:41:13.602
49.0, -74747.83208940412, -145641.66464110193, 79465.12305320776, -187500.02235174447, 93266.40883283722, -187500.02235174447, -187500.02235174447, -187500.02235174447, 0.006, 0.966, -0.182, 192.0, 0.0, 0.0, 0.0, 0.0, 0.0, 0.0, 0.0, 0.0, 0.0, 1.718466073602069E9, 0.0, 2024-06-15 10:41:13.602
50.0, -79347.88815353968, -151245.78341791432, 74903.75785872435, -187500.02235174447, 89612.56916672816, -187500.02235174447, -187500.02235174447, -187500.02235174447, 0.006, 0.966, -0.182, 192.0, 0.0, 0.0, 0.0, 0.0, 0.0, 0.0, 0.0, 0.0, 0.0, 1.7184660736020885E9, 0.0, 2024-06-15 10:41:13.602
51.0, -81276.70958956594, -153952.57967145203, 73100.64263351473, -187500.02235174447, 88853.68273898157, -187500.02235174447, -187500.02235174447, -187500.02235174447, 0.006, 0.966, -0.182, 192.0, 0.0, 0.0, 0.0, 0.0, 0.0, 0.0, 0.0, 0.0, 0.0, 1.7184660736021094E9, 0.0, 2024-06-15 10:41:13.602
52.0, -76729.29188362263, -148348.43854289516, 77631.40828983883, -187500.02235174447, 92562.84297261751, -187500.02235174447, -187500.02235174447, -187500.02235174447, 0.006, 0.966, -0.182, 192.0, 0.0, 0.0, 0.0, 0.0, 0.0, 0.0, 0.0, 0.0, 0.0, 1.7184660736021397E9, 0.0, 2024-06-15 10:41:13.602
53.0, -74410.34309987344, -145286.83069787393, 79808.9822899082, -187500.02235174447, 93611.2962497826, -187500.02235174447, -187500.02235174447, -187500.02235174447, 0.006, 0.966, -0.182, 192.0, 0.0, 0.0, 0.0, 0.0, 0.0, 0.0, 0.0, 0.0, 0.0, 1.7184660736021624E9, 0.0, 2024-06-15 10:41:13.602
54.0, -78478.69586690616, -150140.60141332168, 75764.09885455357, -187500.02235174447, 90212.78056058653, -187500.02235174447, -187500.02235174447, -187500.02235174447, 0.006, 0.966, -0.182, 192.0, 0.0, 0.0, 0.0, 0.0, 0.0, 0.0, 0.0, 0.0, 0.0, 1.7184660736021843E9, 0.0, 2024-06-15 10:41:13.602
55.0, -81521.08121169583, -154228.06492186367, 72851.35362760468, -187500.02235174447, 88527.07904900063, -187500.02235174447, -187500.02235174447, -187500.02235174447, 0.006, 0.966, -0.182, 192.0, 0.0, 0.0, 0.0, 0.0, 0.0, 0.0, 0.0, 0.0, 0.0, 1.7184660736022098E9, 0.0, 2024-06-15 10:41:13.602
56.0, -77669.40625541285, -149517.5912401189, 76721.26760736319, -187500.02235174447, 91901.85718558518, -187500.02235174447, -187500.02235174447, -187500.02235174447, 0.006, 0.966, -0.182, 192.0, 0.0, 0.0, 0.0, 0.0, 0.0, 0.0, 0.0, 0.0, 0.0, 1.7184660736022327E9, 0.0, 2024-06-15 10:41:13.602
57.0, -74329.2956744785, -145241.76958105204, 79910.8615411355, -187500.02235174447, 93803.02951372022, -187500.02235174447, -187500.02235174447, -187500.02235174447, 0.006, 0.966, -0.182, 192.0, 0.0, 0.0, 0.0, 0.0, 0.0, 0.0, 0.0, 0.0, 0.0, 1.7184660736022537E9, 0.0, 2024-06-15 10:41:13.602
58.0, -77555.18884124623, -148994.8733442871, 76672.25023177269, -187500.02235174447, 90903.96355437799, -187500.02235174447, -187500.02235174447, -187500.02235174447, 0.006, 0.962, -0.182, 192.0, 0.0, 48.0, 30.0, 16.0, 250.0, 80.0, 0.0, 0.0, 0.0, 1.7184660736022968E9, 0.0, 2024-06-15 10:41:13.602
59.0, -81484.73727521149, -154152.80659828265, 72866.30694464529, -187500.02235174447, 88410.60410864402, -187500.02235174447, -187500.02235174447, -187500.02235174447, 0.006, 0.962, -0.182, 192.0, 0.0, 0.0, 0.0, 0.0, 0.0, 0.0, 0.0, 0.0, 0.0, 1.718466073602321E9, 0.0, 2024-06-15 10:41:13.602
60.0, -78586.94536530321, -150663.4087161313, 75821.9451692039, -187500.02235174447, 91209.91423248223, -187500.02235174447, -187500.02235174447, -187500.02235174447, 0.006, 0.962, -0.182, 192.0, 0.0, 0.0, 0.0, 0.0, 0.0, 0.0, 0.0, 0.0, 0.0, 1.718466073602342E9, 0.0, 2024-06-15 10:41:13.602
61.0, -74427.97862624867, -145404.95966732022, 79830.73053726323, -187500.02235174447, 93852.71744164437, -187500.02235174447, -187500.02235174447, -187500.02235174447, 0.006, 0.962, -0.182, 192.0, 0.0, 0.0, 0.0, 0.0, 0.0, 0.0, 0.0, 0.0, 0.0, 1.7184660736023612E9, 0.0, 2024-06-15 10:41:13.602
62.0, -76656.40284495387, -147881.4658977349, 77560.32974247096, -187500.02235174447, 91595.25830689172, -187500.02235174447, -187500.02235174447, -187500.02235174447, 0.006, 0.962, -0.182, 192.0, 0.0, 0.0, 0.0, 0.0, 0.0, 0.0, 0.0, 0.0, 0.0, 1.71846607360238E9, 0.0, 2024-06-15 10:41:13.602
63.0, -81202.83707414116, -153737.80175898096, 73134.43847113114, -187500.02235174447, 88498.46881609784, -187500.02235174447, -187500.02235174447, -187500.02235174447, 0.006, 0.962, -0.182, 192.0, 0.0, 0.0, 0.0, 0.0, 0.0, 0.0, 0.0, 0.0, 0.0, 1.718466073602399E9, 0.0, 2024-06-15 10:41:13.602
64.0, -79443.62067504176, -151714.4547956532, 74986.97340333145, -187500.02235174447, 90544.36868958101, -187500.02235174447, -187500.02235174447, -187500.02235174447, 0.006, 0.962, -0.182, 192.0, 0.0, 0.0, 0.0, 0.0, 0.0, 0.0, 0.0, 0.0, 0.0, 1.7184660736024313E9, 0.0, 2024-06-15 10:41:13.602
65.0, -74771.90491818248, -145832.63794572806, 79528.6690626942, -187500.02235174447, 93741.71867867932, -187500.02235174447, -187500.02235174447, -187500.02235174447, 0.006, 0.962, -0.182, 192.0, 0.0, 0.0, 0.0, 0.0, 0.0, 0.0, 0.0, 0.0, 0.0, 1.7184660736024504E9, 0.0, 2024-06-15 10:41:13.602
66.0, -75916.2695308053, -146947.05122078076, 78311.95185326957, -187500.02235174447, 92216.01095390451, -187500.02235174447, -187500.02235174447, -187500.02235174447, 0.006, 0.962, -0.182, 192.0, 0.0, 0.0, 0.0, 0.0, 0.0, 0.0, 0.0, 0.0, 0.0, 1.7184660736024916E9, 0.0, 2024-06-15 10:41:13.602
67.0, -80783.36188594841, -153117.40673987946, 73553.46662443479, -187500.02235174447, 88712.8443971687, -187500.02235174447, -187500.02235174447, -187500.02235174447, 0.006, 0.962, -0.182, 192.0, 0.0, 0.0, 0.0, 0.0, 0.0, 0.0, 0.0, 0.0, 0.0, 1.7184660736025276E9, 0.0, 2024-06-15 10:41:13.602
68.0, -80231.63142581361, -152661.74407741358, 74221.98494934857, -187500.02235174447, 89896.41396956611, -187500.02235174447, -187500.02235174447, -187500.02235174447, -0.002, 0.966, -0.182, 192.0, 255.0, 240.0, 30.0, 48.0, 250.0, 80.0, 0.0, 0.0, 0.0, 1.7184660736025448E9, 0.0, 2024-06-15 10:41:13.602
69.0, -75350.36806468584, -146526.25727966515, 79004.43124823943, -187500.02235174447, 93454.76698336209, -187500.02235174447, -187500.02235174447, -187500.02235174447, -0.002, 0.966, -0.182, 192.0, 0.0, 0.0, 0.0, 0.0, 0.0, 0.0, 0.0, 0.0, 0.0, 1.718466073602563E9, 0.0, 2024-06-15 10:41:13.602
70.0, -75306.51394206453, -146189.55060119042, 78946.65198882246, -187500.02235174447, 92780.32544616764, -187500.02235174447, -187500.02235174447, -187500.02235174447, -0.002, 0.966, -0.182, 192.0, 0.0, 0.0, 0.0, 0.0, 0.0, 0.0, 0.0, 0.0, 0.0, 1.718466073602595E9, 0.0, 2024-06-15 10:41:13.602
71.0, -80190.99595439386, -152283.5972647187, 74154.92971598265, -187500.02235174447, 89105.76571294853, -187500.02235174447, -187500.02235174447, -187500.02235174447, -0.002, 0.966, -0.182, 192.0, 0.0, 0.0, 0.0, 0.0, 0.0, 0.0, 0.0, 0.0, 0.0, 1.7184660736026363E9, 0.0, 2024-06-15 10:41:13.602
72.0, -80899.52390188264, -153454.0240113764, 73584.69201143885, -187500.02235174447, 89343.76708790864, -187500.02235174447, -187500.02235174447, -187500.02235174447, -0.002, 0.966, -0.182, 192.0, 0.0, 0.0, 0.0, 0.0, 0.0, 0.0, 0.0, 0.0, 0.0, 1.7184660736026528E9, 0.0, 2024-06-15 10:41:13.602
73.0, -76038.1535933201, -147370.0803363419, 78375.47551101155, -187500.02235174447, 93077.11190904521, -187500.02235174447, -187500.02235174447, -187500.02235174447, -0.002, 0.966, -0.182, 192.0, 0.0, 0.0, 0.0, 0.0, 0.0, 0.0, 0.0, 0.0, 0.0, 1.7184660736026845E9, 0.0, 2024-06-15 10:41:13.602
74.0, -74781.69498225392, -145566.67453845436, 79495.5661291559, -187500.02235174447, 93280.31161788841, -187500.02235174447, -187500.02235174447, -187500.02235174447, -0.002, 0.966, -0.182, 192.0, 0.0, 0.0, 0.0, 0.0, 0.0, 0.0, 0.0, 0.0, 0.0, 1.7184660736026993E9, 0.0, 2024-06-15 10:41:13.602
75.0, -79382.04161906739, -151202.55514413776, 74966.72272285495, -187500.02235174447, 89651.34944335812, -187500.02235174447, -187500.02235174447, -187500.02235174447, -0.002, 0.966, -0.182, 192.0, 0.0, 0.0, 0.0, 0.0, 0.0, 0.0, 0.0, 0.0, 0.0, 1.7184660736027155E9, 0.0, 2024-06-15 10:41:13.602
76.0, -81377.42655008157, -153991.13643063742, 73125.49777334902, -187500.02235174447, 88871.83235547929, -187500.02235174447, -187500.02235174447, -187500.02235174447, -0.002, 0.966, -0.182, 192.0, 0.0, 0.0, 0.0, 0.0, 0.0, 0.0, 0.0, 0.0, 0.0, 1.71846607360275E9, 0.0, 2024-06-15 10:41:13.602
77.0, -76899.38865892752, -148406.35191277886, 77568.42107396378, -187500.02235174447, 92524.82265529904, -187500.02235174447, -187500.02235174447, -187500.02235174447, -0.002, 0.966, -0.182, 192.0, 0.0, 0.0, 0.0, 0.0, 0.0, 0.0, 0.0, 0.0, 0.0, 1.7184660736027677E9, 0.0, 2024-06-15 10:41:13.602
78.0, -74579.18817748883, -145307.17078532826, 79734.90860878333, -187500.02235174447, 93567.82210681702, -187500.02235174447, -187500.02235174447, -187500.02235174447, -0.002, 0.966, -0.182, 192.0, 0.0, 0.0, 0.0, 0.0, 0.0, 0.0, 0.0, 0.0, 0.0, 1.7184660736027856E9, 0.0, 2024-06-15 10:41:13.602
79.0, -78652.48068004617, -150187.33891097773, 75714.38857488497, -187500.02235174447, 90202.67757209273, -187500.02235174447, -187500.02235174447, -187500.02235174447, -0.002, 0.968, -0.178, 192.0, 255.0, 240.0, 30.0, 64.0, 250.0, 112.0, 0.0, 0.0, 0.0, 1.7184660736028495E9, 0.0, 2024-06-15 10:41:13.602
80.0, -81696.31888822543, -154299.09876574264, 72834.05337739628, -187500.02235174447, 88549.07316554466, -187500.02235174447, -187500.02235174447, -187500.02235174447, -0.002, 0.968, -0.178, 192.0, 0.0, 0.0, 0.0, 0.0, 0.0, 0.0, 0.0, 0.0, 0.0, 1.7184660736028657E9, 0.0, 2024-06-15 10:41:13.602
81.0, -77880.31731609313, -149575.3928512803, 76654.77116760865, -187500.02235174447, 91885.62981911062, -187500.02235174447, -187500.02235174447, -187500.02235174447, -0.002, 0.968, -0.178, 192.0, 0.0, 0.0, 0.0, 0.0, 0.0, 0.0, 0.0, 0.0, 0.0, 1.718466073602881E9, 0.0, 2024-06-15 10:41:13.602
82.0, -74630.39602403594, -145343.6041287904, 79743.53638214307, -187500.02235174447, 93718.20464351233, -187500.02235174447, -187500.02235174447, -187500.02235174447, -0.002, 0.968, -0.178, 192.0, 0.0, 0.0, 0.0, 0.0, 0.0, 0.0, 0.0, 0.0, 0.0, 1.7184660736029117E9, 0.0, 2024-06-15 10:41:13.602
83.0, -77847.9743418663, -149106.20738341898, 76542.00661683163, -187500.02235174447, 90858.23188522243, -187500.02235174447, -187500.02235174447, -187500.02235174447, -0.002, 0.968, -0.178, 192.0, 0.0, 0.0, 0.0, 0.0, 0.0, 0.0, 0.0, 0.0, 0.0, 1.7184660736029272E9, 0.0, 2024-06-15 10:41:13.602
84.0, -81746.38679580532, -154264.654727537, 72807.03011834981, -187500.02235174447, 88427.50202745224, -187500.02235174447, -187500.02235174447, -187500.02235174447, -0.002, 0.968, -0.178, 192.0, 0.0, 0.0, 0.0, 0.0, 0.0, 0.0, 0.0, 0.0, 0.0, 1.7184660736029437E9, 0.0, 2024-06-15 10:41:13.602
85.0, -78878.14389206695, -150765.22091212522, 75723.32927266709, -187500.02235174447, 91202.40404634524, -187500.02235174447, -187500.02235174447, -187500.02235174447, -0.002, 0.968, -0.178, 192.0, 0.0, 0.0, 0.0, 0.0, 0.0, 0.0, 0.0, 0.0, 0.0, 1.7184660736029584E9, 0.0, 2024-06-15 10:41:13.602
86.0, -74811.37809889056, -145551.43064873584, 79630.57066566595, -187500.02235174447, 93777.72733899682, -187500.02235174447, -187500.02235174447, -187500.02235174447, -0.002, 0.968, -0.178, 192.0, 0.0, 0.0, 0.0, 0.0, 0.0, 0.0, 0.0, 0.0, 0.0, 1.7184660736029747E9, 0.0, 2024-06-15 10:41:13.602
87.0, -77068.45725398746, -148069.01938545937, 77359.87929819577, -187500.02235174447, 91525.34205023553, -187500.02235174447, -187500.02235174447, -187500.02235174447, -0.002, 0.968, -0.178, 192.0, 0.0, 0.0, 0.0, 0.0, 0.0, 0.0, 0.0, 0.0, 0.0, 1.718466073602994E9, 0.0, 2024-06-15 10:41:13.602
88.0, -81637.10911716332, -153994.10921265, 72957.39030330066, -187500.02235174447, 88461.29786506867, -187500.02235174447, -187500.02235174447, -187500.02235174447, -0.002, 0.968, -0.178, 192.0, 0.0, 0.0, 0.0, 0.0, 0.0, 0.0, 0.0, 0.0, 0.0, 1.718466073603011E9, 0.0, 2024-06-15 10:41:13.603
89.0, -79859.65369458839, -151927.93630694583, 74816.56370360419, -187500.02235174447, 90512.69626768783, -187500.02235174447, -187500.02235174447, -187500.02235174447, 0.002, 0.968, -0.176, 192.0, 0.0, 16.0, 30.0, 64.0, 250.0, 128.0, 0.0, 0.0, 0.0, 1.7184660736030278E9, 0.0, 2024-06-15 10:41:13.603
90.0, -75256.91542111819, -146066.05721307485, 79269.25471654591, -187500.02235174447, 93637.47014253977, -187500.02235174447, -187500.02235174447, -187500.02235174447, 0.002, 0.968, -0.176, 192.0, 0.0, 0.0, 0.0, 0.0, 0.0, 0.0, 0.0, 0.0, 0.0, 1.7184660736030445E9, 0.0, 2024-06-15 10:41:13.603
91.0, -76388.22661497911, -147176.8271537813, 78083.6287836586, -187500.02235174447, 92146.4970286485, -187500.02235174447, -187500.02235174447, -187500.02235174447, 0.002, 0.968, -0.176, 192.0, 0.0, 0.0, 0.0, 0.0, 0.0, 0.0, 0.0, 0.0, 0.0, 1.7184660736030607E9, 0.0, 2024-06-15 10:41:13.603
92.0, -81265.37725512711, -153404.91722880807, 73357.95591568422, -187500.02235174447, 88685.17293753302, -187500.02235174447, -187500.02235174447, -187500.02235174447, 0.002, 0.968, -0.176, 192.0, 0.0, 0.0, 0.0, 0.0, 0.0, 0.0, 0.0, 0.0, 0.0, 1.7184660736030772E9, 0.0, 2024-06-15 10:41:13.603
93.0, -80738.18901040424, -152962.1515228929, 73997.72989722848, -187500.02235174447, 89848.00009107591, -187500.02235174447, -187500.02235174447, -187500.02235174447, 0.002, 0.968, -0.176, 192.0, 0.0, 0.0, 0.0, 0.0, 0.0, 0.0, 0.0, 0.0, 0.0, 1.7184660736030934E9, 0.0, 2024-06-15 10:41:13.603
94.0, -75834.41744260996, -146758.91658770046, 78764.03823662261, -187500.02235174447, 93388.47170930765, -187500.02235174447, -187500.02235174447, -187500.02235174447, 0.002, 0.968, -0.176, 192.0, 0.0, 0.0, 0.0, 0.0, 0.0, 0.0, 0.0, 0.0, 0.0, 1.7184660736031096E9, 0.0, 2024-06-15 10:41:13.603
95.0, -75830.3494251191, -146459.0232323436, 78676.3746948689, -187500.02235174447, 92701.75906440725, -187500.02235174447, -187500.02235174447, -187500.02235174447, 0.002, 0.968, -0.176, 192.0, 0.0, 0.0, 0.0, 0.0, 0.0, 0.0, 0.0, 0.0, 0.0, 1.718466073603126E9, 0.0, 2024-06-15 10:41:13.603
96.0, -80705.30959431049, -152586.91043697722, 73935.3014749648, -187500.02235174447, 89078.16130854623, -187500.02235174447, -187500.02235174447, -187500.02235174447, 0.002, 0.968, -0.176, 192.0, 0.0, 0.0, 0.0, 0.0, 0.0, 0.0, 0.0, 0.0, 0.0, 1.7184660736031425E9, 0.0, 2024-06-15 10:41:13.603
97.0, -81427.42740242809, -153775.8891315328, 73352.77031097059, -187500.02235174447, 89307.31139270203, -187500.02235174447, -187500.02235174447, -187500.02235174447, 0.002, 0.968, -0.176, 192.0, 0.0, 0.0, 0.0, 0.0, 0.0, 0.0, 0.0, 0.0, 0.0, 1.7184660736031802E9, 0.0, 2024-06-15 10:41:13.603
98.0, -76587.04538190906, -147670.77835449914, 78085.43927495948, -187500.02235174447, 92989.26955333586, -187500.02235174447, -187500.02235174447, -187500.02235174447, 0.002, 0.968, -0.176, 192.0, 0.0, 0.0, 0.0, 0.0, 0.0, 0.0, 0.0, 0.0, 0.0, 1.718466073603196E9, 0.0, 2024-06-15 10:41:13.603
99.0, -75406.38153629084, -145933.5337201993, 79139.79341266077, -187500.02235174447, 93161.37798564172, -187500.02235174447, -187500.02235174447, -187500.02235174447, 0.004, 0.972, -0.176, 192.0, 0.0, 32.0, 30.0, 96.0, 250.0, 128.0, 0.0, 0.0, 0.0, 1.718466073603227E9, 0.0, 2024-06-15 10:41:13.603
100.0, -79964.05869293913, -151565.74863979206, 74688.39880089746, -187500.02235174447, 89609.01523935977, -187500.02235174447, -187500.02235174447, -187500.02235174447, 0.004, 0.972, -0.176, 192.0, 0.0, 0.0, 0.0, 0.0, 0.0, 0.0, 0.0, 0.0, 0.0, 1.718466073603243E9, 0.0, 2024-06-15 10:41:13.603
101.0, -81919.23283567821, -154328.69247540148, 72896.68296536004, -187500.02235174447, 88861.46114605202, -187500.02235174447, -187500.02235174447, -187500.02235174447, 0.004, 0.972, -0.176, 192.0, 0.0, 0.0, 0.0, 0.0, 0.0, 0.0, 0.0, 0.0, 0.0, 1.718466073603258E9, 0.0, 2024-06-15 10:41:13.603
102.0, -77403.50990337251, -148668.35906128396, 77339.67332120816, -187500.02235174447, 92490.46802407122, -187500.02235174447, -187500.02235174447, -187500.02235174447, 0.004, 0.972, -0.176, 192.0, 0.0, 0.0, 0.0, 0.0, 0.0, 0.0, 0.0, 0.0, 0.0, 1.7184660736032734E9, 0.0, 2024-06-15 10:41:13.603
103.0, -75062.70111354603, -145537.57256717357, 79514.27453926498, -187500.02235174447, 93546.8785222624, -187500.02235174447, -187500.02235174447, -187500.02235174447, 0.004, 0.972, -0.176, 192.0, 0.0, 0.0, 0.0, 0.0, 0.0, 0.0, 0.0, 0.0, 0.0, 1.7184660736032891E9, 0.0, 2024-06-15 10:41:13.603
104.0, -79051.79459474023, -150372.50076204547, 75595.45494263827, -187500.02235174447, 90255.47239249616, -187500.02235174447, -187500.02235174447, -187500.02235174447, 0.004, 0.972, -0.176, 192.0, 0.0, 0.0, 0.0, 0.0, 0.0, 0.0, 0.0, 0.0, 0.0, 1.718466073603305E9, 0.0, 2024-06-15 10:41:13.603
105.0, -82105.04288733518, -154525.00784695245, 72718.9642451959, -187500.02235174447, 88600.12454988058, -187500.02235174447, -187500.02235174447, -187500.02235174447, 0.004, 0.972, -0.176, 192.0, 0.0, 0.0, 0.0, 0.0, 0.0, 0.0, 0.0, 0.0, 0.0, 1.7184660736033204E9, 0.0, 2024-06-15 10:41:13.603
106.0, -78287.40963785764, -149771.81998155356, 76505.41681115828, -187500.02235174447, 91891.19540347999, -187500.02235174447, -187500.02235174447, -187500.02235174447, 0.004, 0.972, -0.176, 192.0, 0.0, 0.0, 0.0, 0.0, 0.0, 0.0, 0.0, 0.0, 0.0, 1.718466073603336E9, 0.0, 2024-06-15 10:41:13.603
107.0, -74964.55460364278, -145452.7253452212, 79635.93508433523, -187500.02235174447, 93725.69247790486, -187500.02235174447, -187500.02235174447, -187500.02235174447, 0.004, 0.972, -0.176, 192.0, 0.0, 0.0, 0.0, 0.0, 0.0, 0.0, 0.0, 0.0, 0.0, 1.7184660736033516E9, 0.0, 2024-06-15 10:41:13.603
108.0, -78190.55952913279, -149252.29838517887, 76450.85620294287, -187500.02235174447, 90886.73035940295, -187500.02235174447, -187500.02235174447, -187500.02235174447, 0.004, 0.972, -0.176, 192.0, 0.0, 0.0, 0.0, 0.0, 0.0, 0.0, 0.0, 0.0, 0.0, 1.7184660736033707E9, 0.0, 2024-06-15 10:41:13.603
109.0, -82073.99631428675, -154432.40456967408, 72751.55308861173, -187500.02235174447, 88501.75452253276, -187500.02235174447, -187500.02235174447, -187500.02235174447, 0.004, 0.974, -0.188, 192.0, 0.0, 32.0, 30.0, 112.0, 250.0, 32.0, 0.0, 0.0, 0.0, 1.7184660736034064E9, 0.0, 2024-06-15 10:41:13.603
110.0, -79183.98281144892, -150890.0107014192, 75649.79203340913, -187500.02235174447, 91246.90636955576, -187500.02235174447, -187500.02235174447, -187500.02235174447, 0.004, 0.974, -0.188, 192.0, 0.0, 0.0, 0.0, 0.0, 0.0, 0.0, 0.0, 0.0, 0.0, 1.7184660736034184E9, 0.0, 2024-06-15 10:41:13.603
111.0, -75061.60587806773, -145597.4081870804, 79576.01005745055, -187500.02235174447, 93810.91967951294, -187500.02235174447, -187500.02235174447, -187500.02235174447, 0.004, 0.974, -0.188, 192.0, 0.0, 0.0, 0.0, 0.0, 0.0, 0.0, 0.0, 0.0, 0.0, 1.7184660736034284E9, 0.0, 2024-06-15 10:41:13.603
112.0, -77290.83475957332, -148110.83949933524, 77338.82395491886, -187500.02235174447, 91584.12713815298, -187500.02235174447, -187500.02235174447, -187500.02235174447, 0.004, 0.974, -0.188, 192.0, 0.0, 0.0, 0.0, 0.0, 0.0, 0.0, 0.0, 0.0, 0.0, 1.7184660736034431E9, 0.0, 2024-06-15 10:41:13.603
113.0, -81811.83270357046, -154032.1518817129, 72998.36105088724, -187500.02235174447, 88565.63580818604, -187500.02235174447, -187500.02235174447, -187500.02235174447, 0.004, 0.974, -0.188, 192.0, 0.0, 0.0, 0.0, 0.0, 0.0, 0.0, 0.0, 0.0, 0.0, 1.7184660736034584E9, 0.0, 2024-06-15 10:41:13.603
114.0, -80036.45599322987, -151948.611670567, 74824.2080002079, -187500.02235174447, 90577.85160277506, -187500.02235174447, -187500.02235174447, -187500.02235174447, 0.004, 0.974, -0.188, 192.0, 0.0, 0.0, 0.0, 0.0, 0.0, 0.0, 0.0, 0.0, 0.0, 1.7184660736034715E9, 0.0, 2024-06-15 10:41:13.603
115.0, -75388.38838200431, -146002.5112035884, 79282.08461786326, -187500.02235174447, 93694.33298043406, -187500.02235174447, -187500.02235174447, -187500.02235174447, 0.004, 0.974, -0.188, 192.0, 0.0, 0.0, 0.0, 0.0, 0.0, 0.0, 0.0, 0.0, 0.0, 1.718466073603482E9, 0.0, 2024-06-15 10:41:13.603
116.0, -76483.37799112535, -147090.77293762838, 78134.70251973897, -187500.02235174447, 92217.8661486943, -187500.02235174447, -187500.02235174447, -187500.02235174447, 0.004, 0.974, -0.188, 192.0, 0.0, 0.0, 0.0, 0.0, 0.0, 0.0, 0.0, 0.0, 0.0, 1.7184660736034923E9, 0.0, 2024-06-15 10:41:13.603
117.0, -81325.63755817861, -153336.36442856365, 73466.16071059236, -187500.02235174447, 88802.56429941229, -187500.02235174447, -187500.02235174447, -187500.02235174447, 0.004, 0.974, -0.188, 192.0, 0.0, 0.0, 0.0, 0.0, 0.0, 0.0, 0.0, 0.0, 0.0, 1.7184660736035025E9, 0.0, 2024-06-15 10:41:13.603
118.0, -80786.22290923868, -152873.7280218277, 74089.75202915097, -187500.02235174447, 89951.89099930417, -187500.02235174447, -187500.02235174447, -187500.02235174447, 0.004, 0.974, -0.188, 192.0, 0.0, 0.0, 0.0, 0.0, 0.0, 0.0, 0.0, 0.0, 0.0, 1.7184660736035168E9, 0.0, 2024-06-15 10:41:13.603
119.0, -75874.53882390723, -146608.46699577177, 78811.08865870103, -187500.02235174447, 93436.70677384219, -187500.02235174447, -187500.02235174447, -187500.02235174447, 0.004, 0.974, -0.188, 192.0, 0.0, 0.0, 0.0, 0.0, 0.0, 0.0, 0.0, 0.0, 0.0, 1.718466073603531E9, 0.0, 2024-06-15 10:41:13.603
120.0, -75802.02976489422, -146243.19478788314, 78790.97208869125, -187500.02235174447, 92791.81424281768, -187500.02235174447, -187500.02235174447, -187500.02235174447, -0.004, 0.97, -0.19, 192.0, 255.0, 224.0, 30.0, 80.0, 250.0, 16.0, 0.0, 0.0, 0.0, 1.7184660736035469E9, 0.0, 2024-06-15 10:41:13.603
121.0, -80644.64695985877, -152410.44341450257, 74130.20868661508, -187500.02235174447, 89229.2591010641, -187500.02235174447, -187500.02235174447, -187500.02235174447, -0.004, 0.97, -0.19, 192.0, 0.0, 0.0, 0.0, 0.0, 0.0, 0.0, 0.0, 0.0, 0.0, 1.7184660736035607E9, 0.0, 2024-06-15 10:41:13.603
122.0, -81443.78887936937, -153638.62706883278, 73429.12387002991, -187500.02235174447, 89358.87686716043, -187500.02235174447, -187500.02235174447, -187500.02235174447, -0.004, 0.97, -0.19, 192.0, 0.0, 0.0, 0.0, 0.0, 0.0, 0.0, 0.0, 0.0, 0.0, 1.718466073603576E9, 0.0, 2024-06-15 10:41:13.603
123.0, -76825.31497780264, -146828.8551961011, 77245.46071832905, -187500.02235174447, 92274.68428309969, -187500.02235174447, -187500.02235174447, -187500.02235174447, -0.004, 0.97, -0.19, 192.0, 0.0, 0.0, 0.0, 0.0, 0.0, 0.0, 0.0, 0.0, 0.0, 1.7184660736035864E9, 0.0, 2024-06-15 10:41:13.603
124.0, -74912.45268731746, -143605.66659041247, 78692.87028227691, -187500.02235174447, 92750.21764638634, -187500.02235174447, -187500.02235174447, -187500.02235174447, -0.004, 0.97, -0.19, 192.0, 0.0, 0.0, 0.0, 0.0, 0.0, 0.0, 0.0, 0.0, 0.0, 1.7184660736035967E9, 0.0, 2024-06-15 10:41:13.603
125.0, -78365.75250217349, -150146.2340529244, 76984.30293611324, -187500.02235174447, 91395.03138006109, -187500.02235174447, -187500.02235174447, -187500.02235174447, -0.004, 0.97, -0.19, 192.0, 0.0, 0.0, 0.0, 0.0, 0.0, 0.0, 0.0, 0.0, 0.0, 1.718466073603607E9, 0.0, 2024-06-15 10:41:13.603
126.0, -81508.25131037847, -155543.88976620315, 74676.01593446922, -187500.02235174447, 90175.07316769043, -187500.02235174447, -187500.02235174447, -187500.02235174447, -0.004, 0.97, -0.19, 192.0, 0.0, 0.0, 0.0, 0.0, 0.0, 0.0, 0.0, 0.0, 0.0, 1.7184660736036172E9, 0.0, 2024-06-15 10:41:13.603
127.0, -78520.11364938183, -149230.23721340147, 75762.2883632527, -187500.02235174447, 91120.261385472, -187500.02235174447, -187500.02235174447, -187500.02235174447, -0.004, 0.97, -0.19, 192.0, 0.0, 0.0, 0.0, 0.0, 0.0, 0.0, 0.0, 0.0, 0.0, 1.7184660736036277E9, 0.0, 2024-06-15 10:41:13.603
128.0, -75153.22567859002, -143698.49338513534, 78279.09478892027, -187500.02235174447, 92498.55935556405, -187500.02235174447, -187500.02235174447, -187500.02235174447, -0.004, 0.97, -0.19, 192.0, 0.0, 0.0, 0.0, 0.0, 0.0, 0.0, 0.0, 0.0, 0.0, 1.7184660736036377E9, 0.0, 2024-06-15 10:41:13.603
129.0, -77781.47790211176, -148842.81442675763, 77220.44911628356, -187500.02235174447, 91534.48391371775, -187500.02235174447, -187500.02235174447, -187500.02235174447, -0.004, 0.97, -0.19, 192.0, 0.0, 0.0, 0.0, 0.0, 0.0, 0.0, 0.0, 0.0, 0.0, 1.7184660736036482E9, 0.0, 2024-06-15 10:41:13.603
130.0, -81579.44161646863, -155674.51336079996, 74730.10715605106, -187500.02235174447, 90149.23455110009, -187500.02235174447, -187500.02235174447, -187500.02235174447, -0.002, 0.97, -0.198, 192.0, 255.0, 240.0, 30.0, 80.0, 249.0, 208.0, 0.0, 0.0, 0.0, 1.718466073603664E9, 0.0, 2024-06-15 10:41:13.603
131.0, -79472.6555910892, -150811.33256093654, 75155.97494315803, -187500.02235174447, 90734.62673838458, -187500.02235174447, -187500.02235174447, -187500.02235174447, -0.002, 0.97, -0.198, 192.0, 0.0, 0.0, 0.0, 0.0, 0.0, 0.0, 0.0, 0.0, 0.0, 1.7184660736036744E9, 0.0, 2024-06-15 10:41:13.603
132.0, -75433.60596103739, -143977.71137687104, 77974.35110501661, -187500.02235174447, 92390.48867112264, -187500.02235174447, -187500.02235174447, -187500.02235174447, -0.002, 0.97, -0.198, 192.0, 0.0, 0.0, 0.0, 0.0, 0.0, 0.0, 0.0, 0.0, 0.0, 1.7184660736036844E9, 0.0, 2024-06-15 10:41:13.603
133.0, -77127.26469364938, -147445.51747387857, 77532.65828283528, -187500.02235174447, 91768.663140376, -187500.02235174447, -187500.02235174447, -187500.02235174447, -0.002, 0.97, -0.198, 192.0, 0.0, 0.0, 0.0, 0.0, 0.0, 0.0, 0.0, 0.0, 0.0, 1.718466073603695E9, 0.0, 2024-06-15 10:41:13.603
134.0, -81306.66092713606, -155216.70493086637, 75034.47086029898, -187500.02235174447, 90303.19336690824, -187500.02235174447, -187500.02235174447, -187500.02235174447, -0.002, 0.97, -0.198, 192.0, 0.0, 0.0, 0.0, 0.0, 0.0, 0.0, 0.0, 0.0, 0.0, 1.7184660736037056E9, 0.0, 2024-06-15 10:41:13.603
135.0, -80290.68473466454, -152271.7955436463, 74748.32382778214, -187500.02235174447, 90465.69054909832, -187500.02235174447, -187500.02235174447, -187500.02235174447, -0.002, 0.97, -0.198, 192.0, 0.0, 0.0, 0.0, 0.0, 0.0, 0.0, 0.0, 0.0, 0.0, 1.718466073603716E9, 0.0, 2024-06-15 10:41:13.603
136.0, -75868.57090813767, -144546.47386628078, 77619.4277548108, -187500.02235174447, 92236.35104135884, -187500.02235174447, -187500.02235174447, -187500.02235174447, -0.002, 0.97, -0.198, 192.0, 0.0, 0.0, 0.0, 0.0, 0.0, 0.0, 0.0, 0.0, 0.0, 1.718466073603726E9, 0.0, 2024-06-15 10:41:13.603
137.0, -76575.55658525904, -146210.002447367, 77775.88996599794, -187500.02235174447, 91965.3584915827, -187500.02235174447, -187500.02235174447, -187500.02235174447, -0.002, 0.97, -0.198, 192.0, 0.0, 0.0, 0.0, 0.0, 0.0, 0.0, 0.0, 0.0, 0.0, 1.7184660736037364E9, 0.0, 2024-06-15 10:41:13.603
138.0, -80972.83762369605, -154472.39184050463, 75304.94931995265, -187500.02235174447, 90431.98411845972, -187500.02235174447, -187500.02235174447, -187500.02235174447, -0.002, 0.97, -0.198, 192.0, 0.0, 0.0, 0.0, 0.0, 0.0, 0.0, 0.0, 0.0, 0.0, 1.7184660736037464E9, 0.0, 2024-06-15 10:41:13.603
139.0, -81088.75377044127, -153654.6756213517, 74374.02151513357, -187500.02235174447, 90207.95258378418, -187500.02235174447, -187500.02235174447, -187500.02235174447, -0.002, 0.97, -0.198, 192.0, 0.0, 0.0, 0.0, 0.0, 0.0, 0.0, 0.0, 0.0, 0.0, 1.718466073603757E9, 0.0, 2024-06-15 10:41:13.603
140.0, -76515.65391011881, -145442.8235224275, 77149.30351368232, -187500.02235174447, 92023.09304751076, -187500.02235174447, -187500.02235174447, -187500.02235174447, -0.002, 0.97, -0.198, 192.0, 255.0, 240.0, 30.0, 80.0, 249.0, 208.0, 0.0, 0.0, 0.0, 1.718466073603767E9, 0.0, 2024-06-15 10:41:13.603
141.0, -76087.0592101883, -145139.018611791, 78020.4627538279, -187500.02235174447, 92210.5124247685, -187500.02235174447, -187500.02235174447, -187500.02235174447, -0.002, 0.97, -0.198, 192.0, 0.0, 0.0, 0.0, 0.0, 0.0, 0.0, 0.0, 0.0, 0.0, 1.7184660736037772E9, 0.0, 2024-06-15 10:41:13.603
142.0, -80376.69424732856, -153292.8232303647, 75753.99586605976, -187500.02235174447, 90710.68802007295, -187500.02235174447, -187500.02235174447, -187500.02235174447, -0.002, 0.97, -0.198, 192.0, 0.0, 0.0, 0.0, 0.0, 0.0, 0.0, 0.0, 0.0, 0.0, 1.718466073603788E9, 0.0, 2024-06-15 10:41:13.603
143.0, -81639.74662300905, -154695.84222982434, 74220.1744580477, -187500.02235174447, 90087.27551546997, -187500.02235174447, -187500.02235174447, -187500.02235174447, -0.002, 0.97, -0.198, 192.0, 0.0, 0.0, 0.0, 0.0, 0.0, 0.0, 0.0, 0.0, 0.0, 1.7184660736038015E9, 0.0, 2024-06-15 10:41:13.603
144.0, -77283.19046296961, -146550.9336055438, 76615.52150434513, -187500.02235174447, 91741.77399179626, -187500.02235174447, -187500.02235174447, -187500.02235174447, -0.002, 0.97, -0.198, 192.0, 0.0, 0.0, 0.0, 0.0, 0.0, 0.0, 0.0, 0.0, 0.0, 1.7184660736038127E9, 0.0, 2024-06-15 10:41:13.603
145.0, -75798.02880263672, -144386.81535563653, 78118.07282186423, -187500.02235174447, 92358.92800795175, -187500.02235174447, -187500.02235174447, -187500.02235174447, -0.002, 0.97, -0.198, 192.0, 0.0, 0.0, 0.0, 0.0, 0.0, 0.0, 0.0, 0.0, 0.0, 1.7184660736038234E9, 0.0, 2024-06-15 10:41:13.603
146.0, -79790.05036235457, -152004.84865961655, 76128.3652339417, -187500.02235174447, 90950.79045901186, -187500.02235174447, -187500.02235174447, -187500.02235174447, -0.002, 0.97, -0.198, 192.0, 0.0, 0.0, 0.0, 0.0, 0.0, 0.0, 0.0, 0.0, 0.0, 1.718466073603834E9, 0.0, 2024-06-15 10:41:13.603
147.0, -82075.20330848734, -155503.96955060598, 74136.53423029593, -187500.02235174447, 90001.06483710586, -187500.02235174447, -187500.02235174447, -187500.02235174447, -0.002, 0.97, -0.198, 192.0, 0.0, 0.0, 0.0, 0.0, 0.0, 0.0, 0.0, 0.0, 0.0, 1.7184660736038442E9, 0.0, 2024-06-15 10:41:13.603
148.0, -78198.3602879477, -147930.93030821448, 76019.15461053308, -187500.02235174447, 91413.78449365908, -187500.02235174447, -187500.02235174447, -187500.02235174447, -0.002, 0.97, -0.198, 192.0, 0.0, 0.0, 0.0, 0.0, 0.0, 0.0, 0.0, 0.0, 0.0, 1.718466073603855E9, 0.0, 2024-06-15 10:41:13.603
149.0, -75736.18152572888, -144011.10488308728, 78070.91064106353, -187500.02235174447, 92435.70625015572, -187500.02235174447, -187500.02235174447, -187500.02235174447, -0.002, 0.97, -0.198, 192.0, 0.0, 0.0, 0.0, 0.0, 0.0, 0.0, 0.0, 0.0, 0.0, 1.718466073603865E9, 0.0, 2024-06-15 10:41:13.603
150.0, -79140.75453767236, -150550.19713046518, 76502.93576752374, -187500.02235174447, 91210.00363946005, -187500.02235174447, -187500.02235174447, -187500.02235174447, -0.002, 0.97, -0.198, 192.0, 0.0, 0.0, 30.0, 80.0, 250.0, 32.0, 0.0, 0.0, 0.0, 1.7184660736038785E9, 0.0, 2024-06-15 10:41:13.603
151.0, -82267.96475266991, -155874.71793588615, 74220.06269932541, -187500.02235174447, 90035.1512474002, -187500.02235174447, -187500.02235174447, -187500.02235174447, -0.002, 0.97, -0.198, 192.0, 0.0, 0.0, 0.0, 0.0, 0.0, 0.0, 0.0, 0.0, 0.0, 1.7184660736038914E9, 0.0, 2024-06-15 10:41:13.603
152.0, -79096.40867667302, -149385.3136164324, 75512.90995036483, -187500.02235174447, 91134.74531587903, -187500.02235174447, -187500.02235174447, -187500.02235174447, -0.002, 0.97, -0.198, 192.0, 0.0, 0.0, 0.0, 0.0, 0.0, 0.0, 0.0, 0.0, 0.0, 1.7184660736039019E9, 0.0, 2024-06-15 10:41:13.603
153.0, -75793.35728804556, -143917.47342556398, 77988.90209065701, -187500.02235174447, 92465.94816040376, -187500.02235174447, -187500.02235174447, -187500.02235174447, -0.002, 0.97, -0.198, 192.0, 0.0, 0.0, 0.0, 0.0, 0.0, 0.0, 0.0, 0.0, 0.0, 1.7184660736039145E9, 0.0, 2024-06-15 10:41:13.603
154.0, -78449.3703781808, -149045.678859434, 76890.06798148966, -187500.02235174447, 91462.33248261601, -187500.02235174447, -187500.02235174447, -187500.02235174447, -0.002, 0.97, -0.198, 192.0, 0.0, 0.0, 0.0, 0.0, 0.0, 0.0, 0.0, 0.0, 0.0, 1.7184660736039305E9, 0.0, 2024-06-15 10:41:13.603
155.0, -82198.45082741391, -155786.16032435422, 74457.3264667185, -187500.02235174447, 90128.1792078232, -187500.02235174447, -187500.02235174447, -187500.02235174447, -0.002, 0.97, -0.198, 192.0, 0.0, 0.0, 0.0, 0.0, 0.0, 0.0, 0.0, 0.0, 0.0, 1.7184660736039464E9, 0.0, 2024-06-15 10:41:13.603
156.0, -80012.89725457398, -150912.09422494104, 75029.97815966346, -187500.02235174447, 90818.17755915852, -187500.02235174447, -187500.02235174447, -187500.02235174447, -0.002, 0.97, -0.198, 192.0, 0.0, 0.0, 0.0, 0.0, 0.0, 0.0, 0.0, 0.0, 0.0, 1.7184660736039631E9, 0.0, 2024-06-15 10:41:13.603
157.0, -76029.88344787163, -144153.8207714344, 77802.42148666638, -187500.02235174447, 92421.69170638225, -187500.02235174447, -187500.02235174447, -187500.02235174447, -0.002, 0.97, -0.198, 192.0, 0.0, 0.0, 0.0, 0.0, 0.0, 0.0, 0.0, 0.0, 0.0, 1.71846607360398E9, 0.0, 2024-06-15 10:41:13.603
158.0, -77850.9247721344, -147665.68215676333, 77185.40158097763, -187500.02235174447, 91666.26979902624, -187500.02235174447, -187500.02235174447, -187500.02235174447, -0.002, 0.97, -0.198, 192.0, 0.0, 0.0, 0.0, 0.0, 0.0, 0.0, 0.0, 0.0, 0.0, 1.7184660736039965E9, 0.0, 2024-06-15 10:41:13.603
159.0, -82044.9166947504, -155387.36049978263, 74666.4270360979, -187500.02235174447, 90210.94771754119, -187500.02235174447, -187500.02235174447, -187500.02235174447, -0.002, 0.97, -0.198, 192.0, 0.0, 0.0, 0.0, 0.0, 0.0, 0.0, 0.0, 0.0, 0.0, 1.7184660736040123E9, 0.0, 2024-06-15 10:41:13.604
160.0, -80907.81639907556, -152425.240269332, 74592.9568520733, -187500.02235174447, 90538.04314590016, -187500.02235174447, -187500.02235174447, -187500.02235174447, -0.002, 0.97, -0.198, 192.0, 0.0, 0.0, 0.0, 0.0, 0.0, 0.0, 0.0, 0.0, 0.0, 1.7184660736040294E9, 0.0, 2024-06-15 10:41:13.604
161.0, -76477.11950267786, -144745.76201984432, 77494.03446841652, -187500.02235174447, 92310.67059167274, -187500.02235174447, -187500.02235174447, -187500.02235174447, -0.002, 0.97, -0.198, 192.0, 0.0, 0.0, 30.0, 80.0, 250.0, 96.0, 0.0, 0.0, 0.0, 1.7184660736040523E9, 0.0, 2024-06-15 10:41:13.604
162.0, -77239.44809907056, -146375.47241156964, 77526.04216647652, -187500.02235174447, 91939.09519184771, -187500.02235174447, -187500.02235174447, -187500.02235174447, -0.002, 0.97, -0.198, 192.0, 0.0, 0.0, 0.0, 0.0, 0.0, 0.0, 0.0, 0.0, 0.0, 1.7184660736040692E9, 0.0, 2024-06-15 10:41:13.604
163.0, -81607.02366912647, -154531.84748075576, 75052.53106981887, -187500.02235174447, 90428.05021143559, -187500.02235174447, -187500.02235174447, -187500.02235174447, -0.002, 0.97, -0.198, 192.0, 0.0, 0.0, 0.0, 0.0, 0.0, 0.0, 0.0, 0.0, 0.0, 1.7184660736040854E9, 0.0, 2024-06-15 10:41:13.604
164.0, -81625.8661897023, -153740.21574738214, 74318.9915202846, -187500.02235174447, 90357.5304576791, -187500.02235174447, -187500.02235174447, -187500.02235174447, -0.002, 0.97, -0.198, 192.0, 0.0, 0.0, 0.0, 0.0, 0.0, 0.0, 0.0, 0.0, 0.0, 1.718466073604103E9, 0.0, 2024-06-15 10:41:13.604
165.0, -77049.79354736728, -145628.2759461732, 77138.0605862213, -187500.02235174447, 92174.07908130635, -187500.02235174447, -187500.02235174447, -187500.02235174447, -0.002, 0.97, -0.198, 192.0, 0.0, 0.0, 0.0, 0.0, 0.0, 0.0, 0.0, 0.0, 0.0, 1.71846607360412E9, 0.0, 2024-06-15 10:41:13.604
166.0, -76725.80501148761, -145282.00272107156, 77769.38560836144, -187500.02235174447, 92146.20645597059, -187500.02235174447, -187500.02235174447, -187500.02235174447, -0.002, 0.97, -0.198, 192.0, 0.0, 0.0, 0.0, 0.0, 0.0, 0.0, 0.0, 0.0, 0.0, 1.7184660736041367E9, 0.0, 2024-06-15 10:41:13.604
0.0, 0.0, 0.0, 0.0, 0.0, 0.0, 0.0, 0.0, 0.0, -0.002, 0.97, -0.198, 192.0, 0.0, 0.0, 0.0, 0.0, 0.0, 0.0, 0.0, 0.0, 0.0, 1.718466073681947E9, 0.0, 2024-06-15 10:41:13.681
1.0, -20785.20009341241, -140430.75775274727, 81388.44596009803, -187500.02235174447, 90383.95021962527, -187500.02235174447, -187500.02235174447, -187500.02235174447, 0.028, 0.968, -0.016, 192.0, 0.0, 224.0, 30.0, 64.0, 255.0, 128.0, 0.0, 0.0, 0.0, 1.7184660736978557E9, 0.0, 2024-06-15 10:41:13.697
2.0, -23611.24290361916, -143977.7337286155, 78891.04084861766, -187500.02235174447, 88772.99294149793, -187500.02235174447, -187500.02235174447, -187500.02235174447, 0.028, 0.968, -0.016, 192.0, 0.0, 0.0, 0.0, 0.0, 0.0, 0.0, 0.0, 0.0, 0.0, 1.7184660741775162E9, 0.0, 2024-06-15 10:41:14.177
3.0, -21270.1211893703, -140976.16266920124, 81470.00747561545, -187500.02235174447, 91070.17112614764, -187500.02235174447, -187500.02235174447, -187500.02235174447, 0.028, 0.968, -0.016, 192.0, 0.0, 0.0, 0.0, 0.0, 0.0, 0.0, 0.0, 0.0, 0.0, 1.7184660741776865E9, 0.0, 2024-06-15 10:41:14.177
4.0, -18684.292576824737, -137437.45683878148, 84149.86987708448, -187500.02235174447, 92787.54505962672, -187500.02235174447, -187500.02235174447, -187500.02235174447, 0.028, 0.968, -0.016, 192.0, 0.0, 0.0, 0.0, 0.0, 0.0, 0.0, 0.0, 0.0, 0.0, 1.718466074177706E9, 0.0, 2024-06-15 10:41:14.177
5.0, -20976.307508505288, -139646.07741189926, 82077.1255585105, -187500.02235174447, 90875.42037670856, -187500.02235174447, -187500.02235174447, -187500.02235174447, 0.028, 0.968, -0.016, 192.0, 0.0, 0.0, 0.0, 0.0, 0.0, 0.0, 0.0, 0.0, 0.0, 1.718466074177722E9, 0.0, 2024-06-15 10:41:14.177
6.0, -24414.45284062062, -143837.6553461141, 78974.70342811388, -187500.02235174447, 88692.61606843663, -187500.02235174447, -187500.02235174447, -187500.02235174447, 0.028, 0.968, -0.016, 192.0, 0.0, 0.0, 0.0, 0.0, 0.0, 0.0, 0.0, 0.0, 0.0, 1.7184660741777427E9, 0.0, 2024-06-15 10:41:14.177
7.0, -22876.094028484113, -141897.9486105381, 80790.58149940748, -187500.02235174447, 90458.31447342808, -187500.02235174447, -187500.02235174447, -187500.02235174447, 0.028, 0.968, -0.016, 192.0, 0.0, 0.0, 0.0, 0.0, 0.0, 0.0, 0.0, 0.0, 0.0, 1.7184660741777575E9, 0.0, 2024-06-15 10:41:14.177
8.0, -19716.674949726457, -137744.2121796861, 84050.27050379163, -187500.02235174447, 92705.40239875346, -187500.02235174447, -187500.02235174447, -187500.02235174447, 0.046, 0.964, 0.076, 192.0, 1.0, 112.0, 30.0, 32.0, 2.0, 96.0, 0.0, 0.0, 0.0, 1.7184660741777723E9, 0.0, 2024-06-15 10:41:14.177
9.0, -21213.28070322045, -138964.23744729013, 82733.3280722294, -187500.02235174447, 91319.14720763531, -187500.02235174447, -187500.02235174447, -187500.02235174447, 0.046, 0.964, 0.076, 192.0, 0.0, 0.0, 0.0, 0.0, 0.0, 0.0, 0.0, 0.0, 0.0, 1.7184660741777873E9, 0.0, 2024-06-15 10:41:14.177
10.0, -24952.571088382138, -143428.88664351543, 79292.18760635705, -187500.02235174447, 88789.06384576128, -187500.02235174447, -187500.02235174447, -187500.02235174447, 0.046, 0.964, 0.076, 192.0, 0.0, 0.0, 0.0, 0.0, 0.0, 0.0, 0.0, 0.0, 0.0, 1.7184660741778018E9, 0.0, 2024-06-15 10:41:14.177
11.0, -24310.964263792546, -142669.15084947954, 80204.29524234477, -187500.02235174447, 89907.63454528268, -187500.02235174447, -187500.02235174447, -187500.02235174447, 0.046, 0.964, 0.076, 192.0, 0.0, 0.0, 0.0, 0.0, 0.0, 0.0, 0.0, 0.0, 0.0, 1.718466074177816E9, 0.0, 2024-06-15 10:41:14.177
12.0, -20864.92876588449, -138217.08568538257, 83756.09919501534, -187500.02235174447, 92497.15119566336, -187500.02235174447, -187500.02235174447, -187500.02235174447, 0.046, 0.964, 0.076, 192.0, 0.0, 0.0, 0.0, 0.0, 0.0, 0.0, 0.0, 0.0, 0.0, 1.7184660741778293E9, 0.0, 2024-06-15 10:41:14.177
13.0, -21401.705908978693, -138305.86681435906, 83349.20803895094, -187500.02235174447, 91758.69426234893, -187500.02235174447, -187500.02235174447, -187500.02235174447, 0.046, 0.964, 0.076, 192.0, 0.0, 0.0, 0.0, 0.0, 0.0, 0.0, 0.0, 0.0, 0.0, 1.7184660741778429E9, 0.0, 2024-06-15 10:41:14.177
14.0, -25272.916289915596, -142795.72877832994, 79732.76284131562, -187500.02235174447, 89012.44717984763, -187500.02235174447, -187500.02235174447, -187500.02235174447, 0.046, 0.964, 0.076, 192.0, 0.0, 0.0, 0.0, 0.0, 0.0, 0.0, 0.0, 0.0, 0.0, 1.7184660741778567E9, 0.0, 2024-06-15 10:41:14.177
15.0, -25663.60243124991, -143347.6827559093, 79610.87877880082, -187500.02235174447, 89369.8962771769, -187500.02235174447, -187500.02235174447, -187500.02235174447, 0.046, 0.964, 0.076, 192.0, 0.0, 0.0, 0.0, 0.0, 0.0, 0.0, 0.0, 0.0, 0.0, 1.7184660741778705E9, 0.0, 2024-06-15 10:41:14.177
16.0, -22138.978199836994, -138866.1356408758, 83274.93319212594, -187500.02235174447, 92169.56402892638, -187500.02235174447, -187500.02235174447, -187500.02235174447, 0.046, 0.964, 0.076, 192.0, 0.0, 0.0, 0.0, 0.0, 0.0, 0.0, 0.0, 0.0, 0.0, 1.718466074177884E9, 0.0, 2024-06-15 10:41:14.177
17.0, -21759.177358052417, -137900.4061699398, 83764.43639569716, -187500.02235174447, 92099.9383449481, -187500.02235174447, -187500.02235174447, -187500.02235174447, 0.046, 0.964, 0.076, 192.0, 0.0, 0.0, 0.0, 0.0, 0.0, 0.0, 0.0, 0.0, 0.0, 1.7184660741778977E9, 0.0, 2024-06-15 10:41:14.177
18.0, -25499.33946124786, -142107.47386306213, 80255.8383650587, -187500.02235174447, 89329.8866546019, -187500.02235174447, -187500.02235174447, -187500.02235174447, 0.038, 0.9500000000000001, 0.134, 192.0, 1.0, 48.0, 29.0, 176.0, 4.0, 48.0, 0.0, 0.0, 0.0, 1.7184660741779113E9, 0.0, 2024-06-15 10:41:14.177
19.0, -26849.9883234487, -143865.9526545945, 79169.49888104187, -187500.02235174447, 88937.68059464463, -187500.02235174447, -187500.02235174447, -187500.02235174447, 0.038, 0.9500000000000001, 0.134, 192.0, 0.0, 0.0, 0.0, 0.0, 0.0, 0.0, 0.0, 0.0, 0.0, 1.7184660741779256E9, 0.0, 2024-06-15 10:41:14.177
20.0, -23606.10200239444, -139767.82736394732, 82588.4440646701, -187500.02235174447, 91703.55250877769, -187500.02235174447, -187500.02235174447, -187500.02235174447, 0.038, 0.9500000000000001, 0.134, 192.0, 0.0, 0.0, 0.0, 0.0, 0.0, 0.0, 0.0, 0.0, 0.0, 1.7184660741779397E9, 0.0, 2024-06-15 10:41:14.177
21.0, -22367.167158981225, -137823.65027948027, 83930.66631921129, -187500.02235174447, 92309.84357712789, -187500.02235174447, -187500.02235174447, -187500.02235174447, 0.038, 0.9500000000000001, 0.134, 192.0, 0.0, 0.0, 0.0, 0.0, 0.0, 0.0, 0.0, 0.0, 0.0, 1.7184660741779532E9, 0.0, 2024-06-15 10:41:14.177
22.0, -25831.955770487282, -141562.3595192861, 80691.60797495938, -187500.02235174447, 89696.9693537914, -187500.02235174447, -187500.02235174447, -187500.02235174447, 0.038, 0.9500000000000001, 0.134, 192.0, 0.0, 0.0, 0.0, 0.0, 0.0, 0.0, 0.0, 0.0, 0.0, 1.7184660741779668E9, 0.0, 2024-06-15 10:41:14.177
23.0, -28052.60158212204, -144378.36639623242, 78744.39105324639, -187500.02235174447, 88594.91659342249, -187500.02235174447, -187500.02235174447, -187500.02235174447, 0.038, 0.9500000000000001, 0.134, 192.0, 0.0, 0.0, 0.0, 0.0, 0.0, 0.0, 0.0, 0.0, 0.0, 1.71846607417798E9, 0.0, 2024-06-15 10:41:14.177
24.0, -25285.701487744034, -140914.2036335711, 81725.71143218415, -187500.02235174447, 91138.09807754733, -187500.02235174447, -187500.02235174447, -187500.02235174447, 0.038, 0.9500000000000001, 0.134, 192.0, 0.0, 0.0, 0.0, 0.0, 0.0, 0.0, 0.0, 0.0, 0.0, 1.7184660741779935E9, 0.0, 2024-06-15 10:41:14.177
25.0, -23266.824873307334, -138094.62047751195, 83851.98817872861, -187500.02235174447, 92402.08922649494, -187500.02235174447, -187500.02235174447, -187500.02235174447, 0.038, 0.9500000000000001, 0.134, 192.0, 0.0, 0.0, 0.0, 0.0, 0.0, 0.0, 0.0, 0.0, 0.0, 1.7184660741780086E9, 0.0, 2024-06-15 10:41:14.178
26.0, -26119.01922452679, -141016.41816096523, 81200.71365841791, -187500.02235174447, 90154.06252790244, -187500.02235174447, -187500.02235174447, -187500.02235174447, 0.038, 0.9500000000000001, 0.134, 192.0, 0.0, 0.0, 0.0, 0.0, 0.0, 0.0, 0.0, 0.0, 0.0, 1.718466074178022E9, 0.0, 2024-06-15 10:41:14.178
27.0, -29049.534088317647, -144653.404611755, 78534.79874548898, -187500.02235174447, 88424.01515531722, -187500.02235174447, -187500.02235174447, -187500.02235174447, 0.038, 0.9500000000000001, 0.134, 192.0, 0.0, 0.0, 0.0, 0.0, 0.0, 0.0, 0.0, 0.0, 0.0, 1.7184660741780355E9, 0.0, 2024-06-15 10:41:14.178
28.0, -26916.12713529195, -142034.36130694882, 80906.58705313053, -187500.02235174447, 90585.22767844531, -187500.02235174447, -187500.02235174447, -187500.02235174447, 0.038, 0.9500000000000001, 0.134, 192.0, 0.0, 0.0, 0.0, 0.0, 0.0, 0.0, 0.0, 0.0, 0.0, 1.7184660741780488E9, 0.0, 2024-06-15 10:41:14.178
29.0, -24224.12773658368, -138476.85765944215, 83711.88744448274, -187500.02235174447, 92428.95602333022, -187500.02235174447, -187500.02235174447, -187500.02235174447, 0.03, 0.9580000000000001, 0.152, 192.0, 0.0, 240.0, 29.0, 240.0, 4.0, 192.0, 0.0, 0.0, 0.0, 1.718466074178062E9, 0.0, 2024-06-15 10:41:14.178
30.0, -26321.950712436523, -140450.91902624597, 81785.9046800023, -187500.02235174447, 90653.60166473409, -187500.02235174447, -187500.02235174447, -187500.02235174447, 0.03, 0.9580000000000001, 0.152, 192.0, 0.0, 0.0, 0.0, 0.0, 0.0, 0.0, 0.0, 0.0, 0.0, 1.7184660741780756E9, 0.0, 2024-06-15 10:41:14.178
31.0, -29812.13090564381, -144668.58144624013, 78546.06402469445, -187500.02235174447, 88392.72271307978, -187500.02235174447, -187500.02235174447, -187500.02235174447, 0.03, 0.9580000000000001, 0.152, 192.0, 0.0, 0.0, 0.0, 0.0, 0.0, 0.0, 0.0, 0.0, 0.0, 1.7184660741780896E9, 0.0, 2024-06-15 10:41:14.178
32.0, -28519.97655868251, -143132.7260294826, 80101.36545912808, -187500.02235174447, 89992.52647072393, -187500.02235174447, -187500.02235174447, -187500.02235174447, 0.03, 0.9580000000000001, 0.152, 192.0, 0.0, 0.0, 0.0, 0.0, 0.0, 0.0, 0.0, 0.0, 0.0, 1.7184660741781032E9, 0.0, 2024-06-15 10:41:14.178
33.0, -25321.173706194604, -139031.13621844485, 83429.76372596786, -187500.02235174447, 92322.15938832276, -187500.02235174447, -187500.02235174447, -187500.02235174447, 0.03, 0.9580000000000001, 0.152, 192.0, 0.0, 0.0, 0.0, 0.0, 0.0, 0.0, 0.0, 0.0, 0.0, 1.718466074178117E9, 0.0, 2024-06-15 10:41:14.178
34.0, -26558.633334473772, -139962.75692734207, 82343.1336692731, -187500.02235174447, 91122.78713259545, -187500.02235174447, -187500.02235174447, -187500.02235174447, 0.03, 0.9580000000000001, 0.152, 192.0, 0.0, 0.0, 0.0, 0.0, 0.0, 0.0, 0.0, 0.0, 0.0, 1.7184660741781306E9, 0.0, 2024-06-15 10:41:14.178
35.0, -30314.53106576575, -144388.44703298176, 78821.88455127295, -187500.02235174447, 88539.01488053976, -187500.02235174447, -187500.02235174447, -187500.02235174447, 0.03, 0.9580000000000001, 0.152, 192.0, 0.0, 0.0, 0.0, 0.0, 0.0, 0.0, 0.0, 0.0, 0.0, 1.7184660741781442E9, 0.0, 2024-06-15 10:41:14.178
36.0, -29935.40077631483, -144018.65977271317, 79464.67601831866, -187500.02235174447, 89468.0651388246, -187500.02235174447, -187500.02235174447, -187500.02235174447, 0.03, 0.9580000000000001, 0.152, 192.0, 0.0, 0.0, 0.0, 0.0, 0.0, 0.0, 0.0, 0.0, 0.0, 1.7184660741781576E9, 0.0, 2024-06-15 10:41:14.178
37.0, -26478.703496301594, -139653.22997012496, 83070.9511722268, -187500.02235174447, 92116.47863584502, -187500.02235174447, -187500.02235174447, -187500.02235174447, 0.03, 0.9580000000000001, 0.152, 192.0, 0.0, 0.0, 0.0, 0.0, 0.0, 0.0, 0.0, 0.0, 0.0, 1.7184660741781712E9, 0.0, 2024-06-15 10:41:14.178
38.0, -26819.657006222846, -139531.41296284355, 82854.89921032182, -187500.02235174447, 91541.63647194344, -187500.02235174447, -187500.02235174447, -187500.02235174447, 0.03, 0.9580000000000001, 0.152, 192.0, 0.0, 0.0, 0.0, 0.0, 0.0, 0.0, 0.0, 0.0, 0.0, 1.7184660741781847E9, 0.0, 2024-06-15 10:41:14.178
39.0, -30648.980218050507, -143915.97585868547, 79242.65614064409, -187500.02235174447, 88802.11726452319, -187500.02235174447, -187500.02235174447, -187500.02235174447, 0.046, 0.97, 0.17, 192.0, 1.0, 112.0, 30.0, 80.0, 5.0, 80.0, 0.0, 0.0, 0.0, 1.7184660741781988E9, 0.0, 2024-06-15 10:41:14.178
40.0, -31221.542504017652, -144744.57737738817, 78931.31869212612, -187500.02235174447, 88996.9574209401, -187500.02235174447, -187500.02235174447, -187500.02235174447, 0.046, 0.97, 0.17, 192.0, 0.0, 0.0, 0.0, 0.0, 0.0, 0.0, 0.0, 0.0, 0.0, 1.718466074178212E9, 0.0, 2024-06-15 10:41:14.178
41.0, -27772.042485719026, -140440.9501482189, 82546.5345438164, -187500.02235174447, 91793.3618179991, -187500.02235174447, -187500.02235174447, -187500.02235174447, 0.046, 0.97, 0.17, 192.0, 0.0, 0.0, 0.0, 0.0, 0.0, 0.0, 0.0, 0.0, 0.0, 1.7184660741782255E9, 0.0, 2024-06-15 10:41:14.178
42.0, -27192.707621181922, -139272.84798298456, 83226.63107235802, -187500.02235174447, 91899.4879006729, -187500.02235174447, -187500.02235174447, -187500.02235174447, 0.046, 0.97, 0.17, 192.0, 0.0, 0.0, 0.0, 0.0, 0.0, 0.0, 0.0, 0.0, 0.0, 1.718466074178239E9, 0.0, 2024-06-15 10:41:14.178
43.0, -30859.645409541776, -143335.74692437018, 79755.60632414893, -187500.02235174447, 89179.59352488442, -187500.02235174447, -187500.02235174447, -187500.02235174447, 0.046, 0.97, 0.17, 192.0, 0.0, 0.0, 0.0, 0.0, 0.0, 0.0, 0.0, 0.0, 0.0, 1.7184660741782534E9, 0.0, 2024-06-15 10:41:14.178
44.0, -32362.844927650087, -145308.78011092904, 78508.89307366527, -187500.02235174447, 88640.15652420004, -187500.02235174447, -187500.02235174447, -187500.02235174447, 0.046, 0.97, 0.17, 192.0, 0.0, 0.0, 0.0, 0.0, 0.0, 0.0, 0.0, 0.0, 0.0, 1.7184660741782672E9, 0.0, 2024-06-15 10:41:14.178
45.0, -29194.753372043775, -141387.68063636788, 81872.56239325553, -187500.02235174447, 91359.08977497695, -187500.02235174447, -187500.02235174447, -187500.02235174447, 0.046, 0.97, 0.17, 192.0, 0.0, 0.0, 0.0, 0.0, 0.0, 0.0, 0.0, 0.0, 0.0, 1.718466074178281E9, 0.0, 2024-06-15 10:41:14.178
46.0, -27725.1932293407, -139216.119255557, 83438.88323770562, -187500.02235174447, 92150.38623218372, -187500.02235174447, -187500.02235174447, -187500.02235174447, 0.046, 0.97, 0.17, 192.0, 0.0, 0.0, 0.0, 0.0, 0.0, 0.0, 0.0, 0.0, 0.0, 1.718466074178295E9, 0.0, 2024-06-15 10:41:14.178
47.0, -30909.199226999193, -142604.04021788124, 80433.11005033375, -187500.02235174447, 89690.88967929957, -187500.02235174447, -187500.02235174447, -187500.02235174447, 0.046, 0.97, 0.17, 192.0, 0.0, 0.0, 0.0, 0.0, 0.0, 0.0, 0.0, 0.0, 0.0, 1.7184660741783085E9, 0.0, 2024-06-15 10:41:14.178
48.0, -33282.48510151924, -145596.73763474677, 78311.54952186937, -187500.02235174447, 88421.55646342713, -187500.02235174447, -187500.02235174447, -187500.02235174447, 0.046, 0.97, 0.17, 192.0, 0.0, 0.0, 0.0, 0.0, 0.0, 0.0, 0.0, 0.0, 0.0, 1.7184660741783235E9, 0.0, 2024-06-15 10:41:14.178
49.0, -30691.336773793315, -142399.7676253042, 81133.90429424099, -187500.02235174447, 90845.02200424935, -187500.02235174447, -187500.02235174447, -187500.02235174447, 0.04, 0.968, 0.18, 192.0, 1.0, 64.0, 30.0, 64.0, 5.0, 160.0, 0.0, 0.0, 0.0, 1.7184660741783373E9, 0.0, 2024-06-15 10:41:14.178
50.0, -28457.8163573523, -139367.4405655194, 83471.22621193246, -187500.02235174447, 92276.6288848673, -187500.02235174447, -187500.02235174447, -187500.02235174447, 0.04, 0.968, 0.18, 192.0, 0.0, 0.0, 0.0, 0.0, 0.0, 0.0, 0.0, 0.0, 0.0, 1.718466074178351E9, 0.0, 2024-06-15 10:41:14.178
51.0, -31086.49326401869, -141998.64321930925, 81007.70634504633, -187500.02235174447, 90166.9818361976, -187500.02235174447, -187500.02235174447, -187500.02235174447, 0.04, 0.968, 0.18, 192.0, 0.0, 0.0, 0.0, 0.0, 0.0, 0.0, 0.0, 0.0, 0.0, 1.7184660741783657E9, 0.0, 2024-06-15 10:41:14.178
52.0, -34144.25660899361, -145753.3116046562, 78191.63241286665, -187500.02235174447, 88307.38375274942, -187500.02235174447, -187500.02235174447, -187500.02235174447, 0.04, 0.968, 0.18, 192.0, 0.0, 0.0, 0.0, 0.0, 0.0, 0.0, 0.0, 0.0, 0.0, 1.7184660741783788E9, 0.0, 2024-06-15 10:41:14.178
53.0, -32226.879266128453, -143430.13834120493, 80359.14812793114, -187500.02235174447, 90317.67729731528, -187500.02235174447, -187500.02235174447, -187500.02235174447, 0.04, 0.968, 0.18, 192.0, 0.0, 0.0, 0.0, 0.0, 0.0, 0.0, 0.0, 0.0, 0.0, 1.7184660741783924E9, 0.0, 2024-06-15 10:41:14.178
54.0, -29362.100882780658, -139696.94998227953, 83344.58122784868, -187500.02235174447, 92308.30130676048, -187500.02235174447, -187500.02235174447, -187500.02235174447, 0.04, 0.968, 0.18, 192.0, 0.0, 0.0, 0.0, 0.0, 0.0, 0.0, 0.0, 0.0, 0.0, 1.7184660741784055E9, 0.0, 2024-06-15 10:41:14.178
55.0, -31235.400585579944, -141382.29386595415, 81616.63491924226, -187500.02235174447, 90673.0029789213, -187500.02235174447, -187500.02235174447, -187500.02235174447, 0.04, 0.968, 0.18, 192.0, 0.0, 0.0, 0.0, 0.0, 0.0, 0.0, 0.0, 0.0, 0.0, 1.718466074178419E9, 0.0, 2024-06-15 10:41:14.178
56.0, -34742.27753189534, -145594.72597774578, 78332.0907750238, -187500.02235174447, 88356.17761089535, -187500.02235174447, -187500.02235174447, -187500.02235174447, 0.04, 0.968, 0.18, 192.0, 0.0, 0.0, 0.0, 0.0, 0.0, 0.0, 0.0, 0.0, 0.0, 1.7184660741784332E9, 0.0, 2024-06-15 10:41:14.178
57.0, -33686.62699301565, -144365.1788670038, 79653.07887233245, -187500.02235174447, 89770.14896513808, -187500.02235174447, -187500.02235174447, -187500.02235174447, 0.04, 0.968, 0.18, 192.0, 0.0, 0.0, 0.0, 0.0, 0.0, 0.0, 0.0, 0.0, 0.0, 1.7184660741784468E9, 0.0, 2024-06-15 10:41:14.178
58.0, -30442.02541613882, -140205.31805817105, 83040.66455848987, -187500.02235174447, 92157.62819738725, -187500.02235174447, -187500.02235174447, -187500.02235174447, 0.04, 0.968, 0.18, 192.0, 0.0, 0.0, 0.0, 0.0, 0.0, 0.0, 0.0, 0.0, 0.0, 1.7184660741784616E9, 0.0, 2024-06-15 10:41:14.178
59.0, -31399.708259070907, -140804.30010608438, 82205.82690308415, -187500.02235174447, 91155.80065915592, -187500.02235174447, -187500.02235174447, -187500.02235174447, 0.07, 0.966, 0.196, 192.0, 2.0, 48.0, 30.0, 48.0, 6.0, 32.0, 0.0, 0.0, 0.0, 1.7184660741785123E9, 0.0, 2024-06-15 10:41:14.178
60.0, -35085.66738196223, -145129.98850703103, 78717.92658781131, -187500.02235174447, 88593.50843352181, -187500.02235174447, -187500.02235174447, -187500.02235174447, 0.07, 0.966, 0.196, 192.0, 0.0, 0.0, 0.0, 0.0, 0.0, 0.0, 0.0, 0.0, 0.0, 1.7184660741785264E9, 0.0, 2024-06-15 10:41:14.178
61.0, -35009.000898480524, -145123.08181799433, 79061.33878962265, -187500.02235174447, 89277.09183419847, -187500.02235174447, -187500.02235174447, -187500.02235174447, 0.07, 0.966, 0.196, 192.0, 0.0, 0.0, 0.0, 0.0, 0.0, 0.0, 0.0, 0.0, 0.0, 1.7184660741785398E9, 0.0, 2024-06-15 10:41:14.178
62.0, -31598.30350855631, -140792.76660594542, 82644.63635023074, -187500.02235174447, 91909.3450199777, -187500.02235174447, -187500.02235174447, -187500.02235174447, 0.07, 0.966, 0.196, 192.0, 0.0, 0.0, 0.0, 0.0, 0.0, 0.0, 0.0, 0.0, 0.0, 1.718466074178553E9, 0.0, 2024-06-15 10:41:14.178
63.0, -31651.187735937565, -140334.55584461163, 82694.05605722143, -187500.02235174447, 91540.07184983157, -187500.02235174447, -187500.02235174447, -187500.02235174447, 0.07, 0.966, 0.196, 192.0, 0.0, 0.0, 0.0, 0.0, 0.0, 0.0, 0.0, 0.0, 0.0, 1.7184660741785672E9, 0.0, 2024-06-15 10:41:14.178
64.0, -35348.32273105654, -144554.5204942847, 79164.80501470626, -187500.02235174447, 88870.91593395662, -187500.02235174447, -187500.02235174447, -187500.02235174447, 0.07, 0.966, 0.196, 192.0, 0.0, 0.0, 0.0, 0.0, 0.0, 0.0, 0.0, 0.0, 0.0, 1.7184660741785808E9, 0.0, 2024-06-15 10:41:14.178
65.0, -36163.04381645248, -145678.32150200862, 78604.22326376716, -187500.02235174447, 88859.20361986203, -187500.02235174447, -187500.02235174447, -187500.02235174447, 0.07, 0.966, 0.196, 192.0, 0.0, 0.0, 0.0, 0.0, 0.0, 0.0, 0.0, 0.0, 0.0, 1.718466074178594E9, 0.0, 2024-06-15 10:41:14.178
66.0, -32858.76308187999, -141496.2430591873, 82115.54820722916, -187500.02235174447, 91572.1689548694, -187500.02235174447, -187500.02235174447, -187500.02235174447, 0.07, 0.966, 0.196, 192.0, 0.0, 0.0, 0.0, 0.0, 0.0, 0.0, 0.0, 0.0, 0.0, 1.7184660741786077E9, 0.0, 2024-06-15 10:41:14.178
67.0, -32078.128406778385, -140065.99963498113, 82996.07282830153, -187500.02235174447, 91826.8223794487, -187500.02235174447, -187500.02235174447, -187500.02235174447, 0.07, 0.966, 0.196, 192.0, 0.0, 0.0, 0.0, 0.0, 0.0, 0.0, 0.0, 0.0, 0.0, 1.7184660741786213E9, 0.0, 2024-06-15 10:41:14.178
68.0, -35513.09979118106, -143869.9983203409, 79689.98160242816, -187500.02235174447, 89254.85184846543, -187500.02235174447, -187500.02235174447, -187500.02235174447, 0.07, 0.966, 0.196, 192.0, 0.0, 0.0, 0.0, 0.0, 0.0, 0.0, 0.0, 0.0, 0.0, 1.7184660741786351E9, 0.0, 2024-06-15 10:41:14.178
69.0, -37229.84787581538, -146105.485690294, 78196.9074245581, -187500.02235174447, 88531.8399705696, -187500.02235174447, -187500.02235174447, -187500.02235174447, 0.07, 0.966, 0.196, 192.0, 0.0, 0.0, 0.0, 0.0, 0.0, 0.0, 0.0, 0.0, 0.0, 1.7184660741786487E9, 0.0, 2024-06-15 10:41:14.178
70.0, -34336.347500842516, -142437.58677692257, 81334.26533153836, -187500.02235174447, 91090.91354500217, -187500.02235174447, -187500.02235174447, -187500.02235174447, 0.134, 0.9480000000000001, 0.198, 192.0, 4.0, 48.0, 29.0, 160.0, 6.0, 48.0, 0.0, 0.0, 0.0, 1.7184660741786623E9, 0.0, 2024-06-15 10:41:14.178
71.0, -32664.146442907626, -139994.02701783503, 83126.58466417607, -187500.02235174447, 92063.21442880803, -187500.02235174447, -187500.02235174447, -187500.02235174447, 0.134, 0.9480000000000001, 0.198, 192.0, 0.0, 0.0, 0.0, 0.0, 0.0, 0.0, 0.0, 0.0, 0.0, 1.718466074178676E9, 0.0, 2024-06-15 10:41:14.178
72.0, -35644.10336543362, -143160.33043388493, 80247.92584752153, -187500.02235174447, 89718.94111859097, -187500.02235174447, -187500.02235174447, -187500.02235174447, 0.134, 0.9480000000000001, 0.198, 192.0, 0.0, 0.0, 0.0, 0.0, 0.0, 0.0, 0.0, 0.0, 0.0, 1.7184660741786897E9, 0.0, 2024-06-15 10:41:14.178
73.0, -38112.33945039981, -146306.8972595808, 77955.62034316306, -187500.02235174447, 88324.348726791, -187500.02235174447, -187500.02235174447, -187500.02235174447, 0.134, 0.9480000000000001, 0.198, 192.0, 0.0, 0.0, 0.0, 0.0, 0.0, 0.0, 0.0, 0.0, 0.0, 1.7184660741787033E9, 0.0, 2024-06-15 10:41:14.178
74.0, -35736.52782875631, -143324.34753469797, 80588.38761906477, -187500.02235174447, 90607.44531243388, -187500.02235174447, -187500.02235174447, -187500.02235174447, 0.134, 0.9480000000000001, 0.198, 192.0, 0.0, 0.0, 0.0, 0.0, 0.0, 0.0, 0.0, 0.0, 0.0, 1.718466074178717E9, 0.0, 2024-06-15 10:41:14.178
75.0, -33387.91828011492, -140105.2269465002, 83081.38943688745, -187500.02235174447, 92159.9527788106, -187500.02235174447, -187500.02235174447, -187500.02235174447, 0.134, 0.9480000000000001, 0.198, 192.0, 0.0, 0.0, 0.0, 0.0, 0.0, 0.0, 0.0, 0.0, 0.0, 1.7184660741787298E9, 0.0, 2024-06-15 10:41:14.178
76.0, -35737.51130551235, -142451.89189337398, 80805.98185133719, -187500.02235174447, 90197.46961563465, -187500.02235174447, -187500.02235174447, -187500.02235174447, 0.134, 0.9480000000000001, 0.198, 192.0, 0.0, 0.0, 0.0, 0.0, 0.0, 0.0, 0.0, 0.0, 0.0, 1.7184660741787436E9, 0.0, 2024-06-15 10:41:14.178
77.0, -38805.511749447796, -146284.9701982701, 77870.37078981052, -187500.02235174447, 88234.4276588473, -187500.02235174447, -187500.02235174447, -187500.02235174447, 0.134, 0.9480000000000001, 0.198, 192.0, 0.0, 0.0, 0.0, 0.0, 0.0, 0.0, 0.0, 0.0, 0.0, 1.7184660741787577E9, 0.0, 2024-06-15 10:41:14.178
78.0, -37196.78964576598, -144286.97011315468, 79742.39644317585, -187500.02235174447, 90021.29316583791, -187500.02235174447, -187500.02235174447, -187500.02235174447, 0.134, 0.9480000000000001, 0.198, 192.0, 0.0, 0.0, 0.0, 0.0, 0.0, 0.0, 0.0, 0.0, 0.0, 1.7184660741787713E9, 0.0, 2024-06-15 10:41:14.178
79.0, -34259.569258638534, -140396.02314186373, 82856.46383243368, -187500.02235174447, 92132.23661568602, -187500.02235174447, -187500.02235174447, -187500.02235174447, 0.134, 0.9480000000000001, 0.198, 192.0, 0.0, 0.0, 0.0, 0.0, 0.0, 0.0, 0.0, 0.0, 0.0, 1.7184660741787853E9, 0.0, 2024-06-15 10:41:14.178
80.0, -35797.90571903059, -141736.88193999315, 81390.36821012119, -187500.02235174447, 90706.15061594851, -187500.02235174447, -187500.02235174447, -187500.02235174447, 0.184, 0.966, 0.214, 192.0, 5.0, 192.0, 30.0, 48.0, 6.0, 176.0, 0.0, 0.0, 0.0, 1.7184660741787992E9, 0.0, 2024-06-15 10:41:14.178
81.0, -39283.883784280275, -145989.99422669344, 78012.41612582399, -187500.02235174447, 88314.98334586422, -187500.02235174447, -187500.02235174447, -187500.02235174447, 0.184, 0.966, 0.214, 192.0, 0.0, 0.0, 0.0, 0.0, 0.0, 0.0, 0.0, 0.0, 0.0, 1.7184660741788127E9, 0.0, 2024-06-15 10:41:14.178
82.0, -38521.35402218748, -145086.87199197675, 79041.24457135733, -187500.02235174447, 89496.85418568304, -187500.02235174447, -187500.02235174447, -187500.02235174447, 0.184, 0.966, 0.214, 192.0, 0.0, 0.0, 0.0, 0.0, 0.0, 0.0, 0.0, 0.0, 0.0, 1.7184660741788263E9, 0.0, 2024-06-15 10:41:14.178
83.0, -35301.27230897812, -140861.8558480568, 82482.54149944085, -187500.02235174447, 91963.57035202628, -187500.02235174447, -187500.02235174447, -187500.02235174447, 0.184, 0.966, 0.214, 192.0, 0.0, 0.0, 0.0, 0.0, 0.0, 0.0, 0.0, 0.0, 0.0, 1.7184660741788406E9, 0.0, 2024-06-15 10:41:14.178
84.0, -35961.43108146561, -141135.4188484453, 81900.41266684684, -187500.02235174447, 91168.20587732863, -187500.02235174447, -187500.02235174447, -187500.02235174447, 0.184, 0.966, 0.214, 192.0, 0.0, 0.0, 0.0, 0.0, 0.0, 0.0, 0.0, 0.0, 0.0, 1.718466074178854E9, 0.0, 2024-06-15 10:41:14.178
85.0, -39500.80746421903, -145372.34847215994, 78428.94088374864, -187500.02235174447, 88609.19935812944, -187500.02235174447, -187500.02235174447, -187500.02235174447, 0.184, 0.966, 0.214, 192.0, 0.0, 0.0, 0.0, 0.0, 0.0, 0.0, 0.0, 0.0, 0.0, 1.718466074178867E9, 0.0, 2024-06-15 10:41:14.178
86.0, -39609.12401784945, -145609.90281223092, 78561.88905976882, -187500.02235174447, 89119.69084974419, -187500.02235174447, -187500.02235174447, -187500.02235174447, 0.184, 0.966, 0.214, 192.0, 0.0, 0.0, 0.0, 0.0, 0.0, 0.0, 0.0, 0.0, 0.0, 1.718466074178881E9, 0.0, 2024-06-15 10:41:14.178
87.0, -36331.5759696455, -141326.21333911578, 82103.50061696775, -187500.02235174447, 91769.57956189866, -187500.02235174447, -187500.02235174447, -187500.02235174447, 0.184, 0.966, 0.214, 192.0, 0.0, 0.0, 0.0, 0.0, 0.0, 0.0, 0.0, 0.0, 0.0, 1.7184660741788945E9, 0.0, 2024-06-15 10:41:14.178
88.0, -36160.45101409567, -140593.1431762151, 82371.47568124243, -187500.02235174447, 91578.33803633906, -187500.02235174447, -187500.02235174447, -187500.02235174447, 0.184, 0.966, 0.214, 192.0, 0.0, 0.0, 0.0, 0.0, 0.0, 0.0, 0.0, 0.0, 0.0, 1.7184660741789086E9, 0.0, 2024-06-15 10:41:14.178
89.0, -39675.15107097043, -144671.95655965287, 78901.85909293403, -187500.02235174447, 88941.61450166875, -187500.02235174447, -187500.02235174447, -187500.02235174447, 0.184, 0.966, 0.214, 192.0, 0.0, 0.0, 0.0, 0.0, 0.0, 0.0, 0.0, 0.0, 0.0, 1.7184660741789222E9, 0.0, 2024-06-15 10:41:14.178
90.0, -40719.71514460029, -146094.62274248872, 78072.58702189768, -187500.02235174447, 88734.68205150153, -187500.02235174447, -187500.02235174447, -187500.02235174447, 0.186, 0.964, 0.216, 192.0, 5.0, 208.0, 30.0, 32.0, 6.0, 192.0, 0.0, 0.0, 0.0, 1.7184660741789355E9, 0.0, 2024-06-15 10:41:14.178
91.0, -37552.7635279612, -141991.62477155027, 81538.09088922631, -187500.02235174447, 91450.10607839895, -187500.02235174447, -187500.02235174447, -187500.02235174447, 0.186, 0.964, 0.216, 192.0, 0.0, 0.0, 0.0, 0.0, 0.0, 0.0, 0.0, 0.0, 0.0, 1.718466074178949E9, 0.0, 2024-06-15 10:41:14.178
92.0, -36511.55221599963, -140233.4365526958, 82706.34951667185, -187500.02235174447, 91937.17294182455, -187500.02235174447, -187500.02235174447, -187500.02235174447, 0.186, 0.964, 0.216, 192.0, 0.0, 0.0, 0.0, 0.0, 0.0, 0.0, 0.0, 0.0, 0.0, 1.7184660741789625E9, 0.0, 2024-06-15 10:41:14.178
93.0, -39781.90300248897, -143883.52112573638, 79472.29796317792, -187500.02235174447, 89383.03910291662, -187500.02235174447, -187500.02235174447, -187500.02235174447, 0.186, 0.964, 0.216, 192.0, 0.0, 0.0, 0.0, 0.0, 0.0, 0.0, 0.0, 0.0, 0.0, 1.7184660741789758E9, 0.0, 2024-06-15 10:41:14.178
94.0, -41655.67209192182, -146344.8952251548, 77773.81125376359, -187500.02235174447, 88469.18803086139, -187500.02235174447, -187500.02235174447, -187500.02235174447, 0.186, 0.964, 0.216, 192.0, 0.0, 0.0, 0.0, 0.0, 0.0, 0.0, 0.0, 0.0, 0.0, 1.7184660741789892E9, 0.0, 2024-06-15 10:41:14.178
95.0, -38947.40062325008, -142836.38660149416, 80808.03821182706, -187500.02235174447, 90981.725273338, -187500.02235174447, -187500.02235174447, -187500.02235174447, 0.186, 0.964, 0.216, 192.0, 0.0, 0.0, 0.0, 0.0, 0.0, 0.0, 0.0, 0.0, 0.0, 1.7184660741790023E9, 0.0, 2024-06-15 10:41:14.179
96.0, -37151.527363243986, -140196.6455813224, 82779.37266580733, -187500.02235174447, 92108.67787703013, -187500.02235174447, -187500.02235174447, -187500.02235174447, 0.186, 0.964, 0.216, 192.0, 0.0, 0.0, 0.0, 0.0, 0.0, 0.0, 0.0, 0.0, 0.0, 1.718466074179016E9, 0.0, 2024-06-15 10:41:14.179
97.0, -39914.62766106459, -143140.10210515288, 80057.26546731776, -187500.02235174447, 89864.31686452829, -187500.02235174447, -187500.02235174447, -187500.02235174447, 0.186, 0.964, 0.216, 192.0, 0.0, 0.0, 0.0, 0.0, 0.0, 0.0, 0.0, 0.0, 0.0, 1.71846607417903E9, 0.0, 2024-06-15 10:41:14.179
98.0, -42523.00918376556, -146482.15728785485, 77591.91275738631, -187500.02235174447, 88319.45369475528, -187500.02235174447, -187500.02235174447, -187500.02235174447, 0.186, 0.964, 0.216, 192.0, 0.0, 0.0, 0.0, 0.0, 0.0, 0.0, 0.0, 0.0, 0.0, 1.7184660741790483E9, 0.0, 2024-06-15 10:41:14.179
99.0, -40384.66249521524, -143740.5817199447, 80066.54144126672, -187500.02235174447, 90506.97422110727, -187500.02235174447, -187500.02235174447, -187500.02235174447, 0.186, 0.964, 0.216, 192.0, 0.0, 0.0, 0.0, 0.0, 0.0, 0.0, 0.0, 0.0, 0.0, 1.718466074179065E9, 0.0, 2024-06-15 10:41:14.179
100.0, -37902.94830834249, -140312.89700423443, 82768.0403313685, -187500.02235174447, 92228.63968952176, -187500.02235174447, -187500.02235174447, -187500.02235174447, 0.17200000000000001, 0.962, 0.218, 192.0, 5.0, 96.0, 30.0, 16.0, 6.0, 208.0, 0.0, 0.0, 0.0, 1.7184660741791024E9, 0.0, 2024-06-15 10:41:14.179
101.0, -40008.415580799054, -142382.78029951814, 80708.72941121215, -187500.02235174447, 90398.25533607666, -187500.02235174447, -187500.02235174447, -187500.02235174447, 0.17200000000000001, 0.962, 0.218, 192.0, 0.0, 0.0, 0.0, 0.0, 0.0, 0.0, 0.0, 0.0, 0.0, 1.718466074179116E9, 0.0, 2024-06-15 10:41:14.179
102.0, -43143.44890635597, -146314.40744571775, 77670.21091821324, -187500.02235174447, 88312.05526734058, -187500.02235174447, -187500.02235174447, -187500.02235174447, 0.17200000000000001, 0.962, 0.218, 192.0, 0.0, 0.0, 0.0, 0.0, 0.0, 0.0, 0.0, 0.0, 0.0, 1.718466074179146E9, 0.0, 2024-06-15 10:41:14.179
103.0, -41775.29862824662, -144588.31633190112, 79358.2817147114, -187500.02235174447, 89968.76656636794, -187500.02235174447, -187500.02235174447, -187500.02235174447, 0.17200000000000001, 0.962, 0.218, 192.0, 0.0, 0.0, 0.0, 0.0, 0.0, 0.0, 0.0, 0.0, 0.0, 1.7184660741791608E9, 0.0, 2024-06-15 10:41:14.179
104.0, -38847.242456345855, -140638.91954885956, 82550.06611944034, -187500.02235174447, 92164.55723816839, -187500.02235174447, -187500.02235174447, -187500.02235174447, 0.17200000000000001, 0.962, 0.218, 192.0, 0.0, 0.0, 0.0, 0.0, 0.0, 0.0, 0.0, 0.0, 0.0, 1.7184660741791754E9, 0.0, 2024-06-15 10:41:14.179
105.0, -40148.225742367, -141696.0005993844, 81310.52777892683, -187500.02235174447, 90894.28524902884, -187500.02235174447, -187500.02235174447, -187500.02235174447, 0.17200000000000001, 0.962, 0.218, 192.0, 0.0, 0.0, 0.0, 0.0, 0.0, 0.0, 0.0, 0.0, 0.0, 1.71846607417919E9, 0.0, 2024-06-15 10:41:14.179
106.0, -43615.87537716334, -145937.0429440788, 77897.90813897946, -187500.02235174447, 88462.05782438014, -187500.02235174447, -187500.02235174447, -187500.02235174447, 0.17200000000000001, 0.962, 0.218, 192.0, 0.0, 0.0, 0.0, 0.0, 0.0, 0.0, 0.0, 0.0, 0.0, 1.718466074179205E9, 0.0, 2024-06-15 10:41:14.179
107.0, -43104.422760537, -145349.9073207268, 78688.24347117466, -187500.02235174447, 89484.56072623262, -187500.02235174447, -187500.02235174447, -187500.02235174447, 0.17200000000000001, 0.962, 0.218, 192.0, 0.0, 0.0, 0.0, 0.0, 0.0, 0.0, 0.0, 0.0, 0.0, 1.7184660741792195E9, 0.0, 2024-06-15 10:41:14.179
108.0, -39916.59461457666, -141121.31489769398, 82175.92026900295, -187500.02235174447, 92006.91038452511, -187500.02235174447, -187500.02235174447, -187500.02235174447, 0.17200000000000001, 0.962, 0.218, 192.0, 0.0, 0.0, 0.0, 0.0, 0.0, 0.0, 0.0, 0.0, 0.0, 1.7184660741792345E9, 0.0, 2024-06-15 10:41:14.179
109.0, -40359.33796874738, -141130.9037960653, 81819.25348272962, -187500.02235174447, 91364.61065585741, -187500.02235174447, -187500.02235174447, -187500.02235174447, 0.17200000000000001, 0.962, 0.218, 192.0, 0.0, 0.0, 0.0, 0.0, 0.0, 0.0, 0.0, 0.0, 0.0, 1.7184660741792507E9, 0.0, 2024-06-15 10:41:14.179
110.0, -43952.31383470462, -145405.33964697598, 78251.64684672914, -187500.02235174447, 88725.69665023049, -187500.02235174447, -187500.02235174447, -187500.02235174447, 0.17200000000000001, 0.962, 0.218, 192.0, 0.0, 0.0, 0.0, 0.0, 0.0, 0.0, 0.0, 0.0, 0.0, 1.7184660741792653E9, 0.0, 2024-06-15 10:41:14.179
111.0, -44315.84260652574, -145966.39078454862, 78119.97272014293, -187500.02235174447, 89061.2186862491, -187500.02235174447, -187500.02235174447, -187500.02235174447, 0.156, 0.9460000000000001, 0.232, 192.0, 4.0, 224.0, 29.0, 144.0, 7.0, 64.0, 0.0, 0.0, 0.0, 1.7184660741792803E9, 0.0, 2024-06-15 10:41:14.179
112.0, -41098.37604741765, -141749.33186165476, 81657.9185912512, -187500.02235174447, 91743.09274471912, -187500.02235174447, -187500.02235174447, -187500.02235174447, 0.156, 0.9460000000000001, 0.232, 192.0, 0.0, 0.0, 0.0, 0.0, 0.0, 0.0, 0.0, 0.0, 0.0, 1.7184660741792943E9, 0.0, 2024-06-15 10:41:14.179
113.0, -40707.48874038324, -140762.18941953056, 82169.48296659983, -187500.02235174447, 91730.26284340178, -187500.02235174447, -187500.02235174447, -187500.02235174447, 0.156, 0.9460000000000001, 0.232, 192.0, 0.0, 0.0, 0.0, 0.0, 0.0, 0.0, 0.0, 0.0, 0.0, 1.718466074179309E9, 0.0, 2024-06-15 10:41:14.179
114.0, -44153.635997013575, -144738.47535115186, 78732.58933217399, -187500.02235174447, 89093.53930873147, -187500.02235174447, -187500.02235174447, -187500.02235174447, 0.156, 0.9460000000000001, 0.232, 192.0, 0.0, 0.0, 0.0, 0.0, 0.0, 0.0, 0.0, 0.0, 0.0, 1.7184660741793232E9, 0.0, 2024-06-15 10:41:14.179
115.0, -45421.33753554077, -146453.54705495204, 77647.00980746864, -187500.02235174447, 88693.13015855911, -187500.02235174447, -187500.02235174447, -187500.02235174447, 0.156, 0.9460000000000001, 0.232, 192.0, 0.0, 0.0, 0.0, 0.0, 0.0, 0.0, 0.0, 0.0, 0.0, 1.7184660741793373E9, 0.0, 2024-06-15 10:41:14.179
116.0, -42382.5061181195, -142522.3445918971, 81017.09407771756, -187500.02235174447, 91366.19762971373, -187500.02235174447, -187500.02235174447, -187500.02235174447, 0.156, 0.9460000000000001, 0.232, 192.0, 0.0, 0.0, 0.0, 0.0, 0.0, 0.0, 0.0, 0.0, 0.0, 1.7184660741793518E9, 0.0, 2024-06-15 10:41:14.179
117.0, -41212.97344124001, -140611.67277236853, 82351.7837943773, -187500.02235174447, 91985.25154414792, -187500.02235174447, -187500.02235174447, -187500.02235174447, 0.156, 0.9460000000000001, 0.232, 192.0, 0.0, 0.0, 0.0, 0.0, 0.0, 0.0, 0.0, 0.0, 0.0, 1.7184660741793656E9, 0.0, 2024-06-15 10:41:14.179
118.0, -44378.47219448951, -144109.05022729043, 79207.56390184927, -187500.02235174447, 89494.88723217098, -187500.02235174447, -187500.02235174447, -187500.02235174447, 0.156, 0.9460000000000001, 0.232, 192.0, 0.0, 0.0, 0.0, 0.0, 0.0, 0.0, 0.0, 0.0, 0.0, 1.7184660741793797E9, 0.0, 2024-06-15 10:41:14.179
119.0, -46472.49537378495, -146842.28859451873, 77250.28869513138, -187500.02235174447, 88391.64982934593, -187500.02235174447, -187500.02235174447, -187500.02235174447, 0.156, 0.9460000000000001, 0.232, 192.0, 0.0, 0.0, 0.0, 0.0, 0.0, 0.0, 0.0, 0.0, 0.0, 1.718466074179394E9, 0.0, 2024-06-15 10:41:14.179
120.0, -43877.569601246076, -143516.05844689114, 80174.65682919703, -187500.02235174447, 90834.20375993298, -187500.02235174447, -187500.02235174447, -187500.02235174447, 0.156, 0.9460000000000001, 0.232, 192.0, 0.0, 0.0, 0.0, 0.0, 0.0, 0.0, 0.0, 0.0, 0.0, 1.7184660741794083E9, 0.0, 2024-06-15 10:41:14.179
121.0, -41900.736618129806, -140679.24209585693, 82359.3386840032, -187500.02235174447, 92115.5398625779, -187500.02235174447, -187500.02235174447, -187500.02235174447, 0.15, 0.96, 0.23800000000000002, 192.0, 4.0, 176.0, 30.0, 0.0, 7.0, 112.0, 0.0, 0.0, 0.0, 1.718466074179423E9, 0.0, 2024-06-15 10:41:14.179
122.0, -44509.76634141998, -143403.7409310032, 79786.20586230826, -187500.02235174447, 89946.19130446808, -187500.02235174447, -187500.02235174447, -187500.02235174447, 0.15, 0.96, 0.23800000000000002, 192.0, 0.0, 0.0, 0.0, 0.0, 0.0, 0.0, 0.0, 0.0, 0.0, 1.7184660746579156E9, 0.0, 2024-06-15 10:41:14.657
123.0, -47296.537136618754, -146943.92197655703, 77098.54270202431, -187500.02235174447, 88203.96223115471, -187500.02235174447, -187500.02235174447, -187500.02235174447, 0.15, 0.96, 0.23800000000000002, 192.0, 0.0, 0.0, 0.0, 0.0, 0.0, 0.0, 0.0, 0.0, 0.0, 1.7184660746579924E9, 0.0, 2024-06-15 10:41:14.657
124.0, -45360.13845922214, -144489.47691791976, 79356.02418852142, -187500.02235174447, 90261.9096948993, -187500.02235174447, -187500.02235174447, -187500.02235174447, 0.15, 0.96, 0.23800000000000002, 192.0, 0.0, 0.0, 0.0, 0.0, 0.0, 0.0, 0.0, 0.0, 0.0, 1.7184660746580863E9, 0.0, 2024-06-15 10:41:14.658
125.0, -42825.96472811279, -141012.46190219664, 82138.54815227368, -187500.02235174447, 92078.32420805981, -187500.02235174447, -187500.02235174447, -187500.02235174447, 0.15, 0.96, 0.23800000000000002, 192.0, 0.0, 0.0, 0.0, 0.0, 0.0, 0.0, 0.0, 0.0, 0.0, 1.7184660746580987E9, 0.0, 2024-06-15 10:41:14.658
126.0, -44783.2175830862, -142874.04929090134, 80247.23294344342, -187500.02235174447, 90374.07074857602, -187500.02235174447, -187500.02235174447, -187500.02235174447, 0.15, 0.96, 0.23800000000000002, 192.0, 0.0, 0.0, 0.0, 0.0, 0.0, 0.0, 0.0, 0.0, 0.0, 1.7184660746581104E9, 0.0, 2024-06-15 10:41:14.658
127.0, -48043.0406979371, -146926.84524379316, 77057.37078873764, -187500.02235174447, 88180.09056807644, -187500.02235174447, -187500.02235174447, -187500.02235174447, 0.15, 0.96, 0.23800000000000002, 192.0, 0.0, 0.0, 0.0, 0.0, 0.0, 0.0, 0.0, 0.0, 0.0, 1.7184660746581216E9, 0.0, 2024-06-15 10:41:14.658
128.0, -46931.421390941316, -145555.54336971563, 78469.03991330146, -187500.02235174447, 89646.65557702251, -187500.02235174447, -187500.02235174447, -187500.02235174447, 0.15, 0.96, 0.23800000000000002, 192.0, 0.0, 0.0, 0.0, 0.0, 0.0, 0.0, 0.0, 0.0, 0.0, 1.7184660746581333E9, 0.0, 2024-06-15 10:41:14.658
129.0, -43971.67044540292, -141609.00760996435, 81713.10504831136, -187500.02235174447, 91895.91162156005, -187500.02235174447, -187500.02235174447, -187500.02235174447, 0.15, 0.96, 0.23800000000000002, 192.0, 0.0, 0.0, 0.0, 0.0, 0.0, 0.0, 0.0, 0.0, 0.0, 1.718466074658146E9, 0.0, 2024-06-15 10:41:14.658
130.0, -45127.54620642021, -142481.66441698844, 80646.94918953767, -187500.02235174447, 90762.7228811649, -187500.02235174447, -187500.02235174447, -187500.02235174447, 0.15, 0.96, 0.23800000000000002, 192.0, 0.0, 0.0, 0.0, 0.0, 0.0, 0.0, 0.0, 0.0, 0.0, 1.718466074658157E9, 0.0, 2024-06-15 10:41:14.658
131.0, -48725.43945615763, -146831.2021292689, 77102.02957415934, -187500.02235174447, 88239.4791530942, -187500.02235174447, -187500.02235174447, -187500.02235174447, 0.136, 0.9440000000000001, 0.226, 192.0, 4.0, 64.0, 29.0, 128.0, 7.0, 16.0, 0.0, 0.0, 0.0, 1.7184660746581683E9, 0.0, 2024-06-15 10:41:14.658
132.0, -48462.694700085485, -146594.2065828093, 77625.10509790243, -187500.02235174447, 89098.97078263412, -187500.02235174447, -187500.02235174447, -187500.02235174447, 0.136, 0.9440000000000001, 0.226, 192.0, 0.0, 0.0, 0.0, 0.0, 0.0, 0.0, 0.0, 0.0, 0.0, 1.7184660746581795E9, 0.0, 2024-06-15 10:41:14.658
133.0, -45229.33605066968, -142383.49555534072, 81166.11315800108, -187500.02235174447, 91699.95387792039, -187500.02235174447, -187500.02235174447, -187500.02235174447, 0.136, 0.9440000000000001, 0.226, 192.0, 0.0, 0.0, 0.0, 0.0, 0.0, 0.0, 0.0, 0.0, 0.0, 1.7184660746581995E9, 0.0, 2024-06-15 10:41:14.658
134.0, -45494.09246374279, -142192.7681199036, 81025.61009235503, -187500.02235174447, 91208.34961037035, -187500.02235174447, -187500.02235174447, -187500.02235174447, 0.136, 0.9440000000000001, 0.226, 192.0, 0.0, 0.0, 0.0, 0.0, 0.0, 0.0, 0.0, 0.0, 0.0, 1.7184660746582313E9, 0.0, 2024-06-15 10:41:14.658
135.0, -49125.11099876297, -146461.70544167823, 77439.13858403428, -187500.02235174447, 88543.3511189641, -187500.02235174447, -187500.02235174447, -187500.02235174447, 0.136, 0.9440000000000001, 0.226, 192.0, 0.0, 0.0, 0.0, 0.0, 0.0, 0.0, 0.0, 0.0, 0.0, 1.7184660746582456E9, 0.0, 2024-06-15 10:41:14.658
136.0, -49789.315436996876, -147414.94028746372, 76992.72954377289, -187500.02235174447, 88661.77066108832, -187500.02235174447, -187500.02235174447, -187500.02235174447, 0.136, 0.9440000000000001, 0.226, 192.0, 0.0, 0.0, 0.0, 0.0, 0.0, 0.0, 0.0, 0.0, 0.0, 1.7184660746582642E9, 0.0, 2024-06-15 10:41:14.658
137.0, -46584.18704082812, -143286.3272173795, 80518.73958334203, -187500.02235174447, 91372.29965595003, -187500.02235174447, -187500.02235174447, -187500.02235174447, 0.136, 0.9440000000000001, 0.226, 192.0, 0.0, 0.0, 0.0, 0.0, 0.0, 0.0, 0.0, 0.0, 0.0, 1.7184660746582828E9, 0.0, 2024-06-15 10:41:14.658
138.0, -45993.2069174298, -142084.1833453397, 81266.53954583878, -187500.02235174447, 91542.59759695502, -187500.02235174447, -187500.02235174447, -187500.02235174447, 0.136, 0.9440000000000001, 0.226, 192.0, 0.0, 0.0, 0.0, 0.0, 0.0, 0.0, 0.0, 0.0, 0.0, 1.7184660746583E9, 0.0, 2024-06-15 10:41:14.658
139.0, -49460.096592914655, -146022.471311387, 77846.14149882097, -187500.02235174447, 88918.45809441306, -187500.02235174447, -187500.02235174447, -187500.02235174447, 0.136, 0.9440000000000001, 0.226, 192.0, 0.0, 0.0, 0.0, 0.0, 0.0, 0.0, 0.0, 0.0, 0.0, 1.7184660746583183E9, 0.0, 2024-06-15 10:41:14.658
140.0, -50996.55550677246, -148073.10975469468, 76485.56846208197, -187500.02235174447, 88330.76367744966, -187500.02235174447, -187500.02235174447, -187500.02235174447, 0.136, 0.9440000000000001, 0.226, 192.0, 0.0, 0.0, 0.0, 0.0, 0.0, 0.0, 0.0, 0.0, 0.0, 1.718466074658336E9, 0.0, 2024-06-15 10:41:14.658
141.0, -48046.14759041639, -144308.49484306513, 79763.83176610849, -187500.02235174447, 90979.08776749227, -187500.02235174447, -187500.02235174447, -187500.02235174447, 0.124, 0.972, 0.222, 192.0, 3.0, 224.0, 30.0, 96.0, 6.0, 240.0, 0.0, 0.0, 0.0, 1.7184660746583517E9, 0.0, 2024-06-15 10:41:14.658
142.0, -46581.03544485992, -142096.16388036776, 81419.67134710209, -187500.02235174447, 91827.18000735999, -187500.02235174447, -187500.02235174447, -187500.02235174447, 0.124, 0.972, 0.222, 192.0, 0.0, 0.0, 0.0, 0.0, 0.0, 0.0, 0.0, 0.0, 0.0, 1.71846607465837E9, 0.0, 2024-06-15 10:41:14.658
143.0, -49615.016533734386, -145391.7050828582, 78442.32957867737, -187500.02235174447, 89424.83686504804, -187500.02235174447, -187500.02235174447, -187500.02235174447, 0.124, 0.972, 0.222, 192.0, 0.0, 0.0, 0.0, 0.0, 0.0, 0.0, 0.0, 0.0, 0.0, 1.718466074658384E9, 0.0, 2024-06-15 10:41:14.658
144.0, -51974.01964354749, -148422.19929959768, 76225.88589500022, -187500.02235174447, 88130.87202678586, -187500.02235174447, -187500.02235174447, -187500.02235174447, 0.124, 0.972, 0.222, 192.0, 0.0, 0.0, 0.0, 0.0, 0.0, 0.0, 0.0, 0.0, 0.0, 1.7184660746583982E9, 0.0, 2024-06-15 10:41:14.658
145.0, -49551.403469014585, -145349.2144166487, 78974.14463450249, -187500.02235174447, 90496.60301168001, -187500.02235174447, -187500.02235174447, -187500.02235174447, 0.124, 0.972, 0.222, 192.0, 0.0, 0.0, 0.0, 0.0, 0.0, 0.0, 0.0, 0.0, 0.0, 1.7184660746584113E9, 0.0, 2024-06-15 10:41:14.658
146.0, -47418.130626455626, -142356.11466838297, 81337.21576180647, -187500.02235174447, 91927.94167136452, -187500.02235174447, -187500.02235174447, -187500.02235174447, 0.124, 0.972, 0.222, 192.0, 0.0, 0.0, 0.0, 0.0, 0.0, 0.0, 0.0, 0.0, 0.0, 1.718466074658425E9, 0.0, 2024-06-15 10:41:14.658
147.0, -49889.58536262338, -144876.47502141894, 78945.60145683307, -187500.02235174447, 89880.94656240304, -187500.02235174447, -187500.02235174447, -187500.02235174447, 0.124, 0.972, 0.222, 192.0, 0.0, 0.0, 0.0, 0.0, 0.0, 0.0, 0.0, 0.0, 0.0, 1.7184660746584651E9, 0.0, 2024-06-15 10:41:14.658
148.0, -52838.09338070075, -148584.38355736536, 76105.25353017492, -187500.02235174447, 88013.43596141768, -187500.02235174447, -187500.02235174447, -187500.02235174447, 0.124, 0.972, 0.222, 192.0, 0.0, 0.0, 0.0, 0.0, 0.0, 0.0, 0.0, 0.0, 0.0, 1.7184660746584778E9, 0.0, 2024-06-15 10:41:14.658
149.0, -51085.18017353775, -146397.80180428052, 78165.79379627631, -187500.02235174447, 89921.55968207832, -187500.02235174447, -187500.02235174447, -187500.02235174447, 0.124, 0.972, 0.222, 192.0, 0.0, 0.0, 0.0, 0.0, 0.0, 0.0, 0.0, 0.0, 0.0, 1.718466074658488E9, 0.0, 2024-06-15 10:41:14.658
150.0, -48307.774759265754, -142688.5298119223, 81193.04701006973, -187500.02235174447, 91934.35662202319, -187500.02235174447, -187500.02235174447, -187500.02235174447, 0.124, 0.972, 0.222, 192.0, 0.0, 0.0, 0.0, 0.0, 0.0, 0.0, 0.0, 0.0, 0.0, 1.7184660746584978E9, 0.0, 2024-06-15 10:41:14.658
151.0, -50000.82999477744, -144228.36383919287, 79594.20437743717, -187500.02235174447, 90403.48564427921, -187500.02235174447, -187500.02235174447, -187500.02235174447, 0.124, 0.972, 0.222, 192.0, 0.0, 0.0, 0.0, 0.0, 0.0, 0.0, 0.0, 0.0, 0.0, 1.7184660746585078E9, 0.0, 2024-06-15 10:41:14.658
152.0, -53437.38835303645, -148438.6948870057, 76244.61665685376, -187500.02235174447, 88064.82262192042, -187500.02235174447, -187500.02235174447, -187500.02235174447, 0.112, 0.966, 0.21, 192.0, 3.0, 128.0, 30.0, 48.0, 6.0, 144.0, 0.0, 0.0, 0.0, 1.7184660746585178E9, 0.0, 2024-06-15 10:41:14.658
153.0, -52486.746309607784, -147322.4264171632, 77473.3367530509, -187500.02235174447, 89418.19839694482, -187500.02235174447, -187500.02235174447, -187500.02235174447, 0.112, 0.966, 0.21, 192.0, 0.0, 0.0, 0.0, 0.0, 0.0, 0.0, 0.0, 0.0, 0.0, 1.718466074658533E9, 0.0, 2024-06-15 10:41:14.658
154.0, -49350.707155550386, -143225.15049280532, 80882.26835516315, -187500.02235174447, 91808.94098388446, -187500.02235174447, -187500.02235174447, -187500.02235174447, 0.112, 0.966, 0.21, 192.0, 0.0, 0.0, 0.0, 0.0, 0.0, 0.0, 0.0, 0.0, 0.0, 1.718466074658543E9, 0.0, 2024-06-15 10:41:14.658
155.0, -50269.45325964133, -143811.70497080148, 80076.5997262716, -187500.02235174447, 90826.85003600718, -187500.02235174447, -187500.02235174447, -187500.02235174447, 0.112, 0.966, 0.21, 192.0, 0.0, 0.0, 0.0, 0.0, 0.0, 0.0, 0.0, 0.0, 0.0, 1.7184660746585531E9, 0.0, 2024-06-15 10:41:14.658
156.0, -53885.94316076555, -148142.08723808377, 76527.92501782477, -187500.02235174447, 88244.24007466318, -187500.02235174447, -187500.02235174447, -187500.02235174447, 0.112, 0.966, 0.21, 192.0, 0.0, 0.0, 0.0, 0.0, 0.0, 0.0, 0.0, 0.0, 0.0, 1.718466074658563E9, 0.0, 2024-06-15 10:41:14.658
157.0, -53851.521474304376, -148215.15509070817, 76803.90200661446, -187500.02235174447, 88898.00624823646, -187500.02235174447, -187500.02235174447, -187500.02235174447, 0.112, 0.966, 0.21, 192.0, 0.0, 0.0, 0.0, 0.0, 0.0, 0.0, 0.0, 0.0, 0.0, 1.718466074658573E9, 0.0, 2024-06-15 10:41:14.658
158.0, -50567.82669637522, -143987.70260664256, 80376.26956418391, -187500.02235174447, 91536.2049980408, -187500.02235174447, -187500.02235174447, -187500.02235174447, 0.112, 0.966, 0.21, 192.0, 0.0, 0.0, 0.0, 0.0, 0.0, 0.0, 0.0, 0.0, 0.0, 1.718466074658583E9, 0.0, 2024-06-15 10:41:14.658
159.0, -50574.42046098953, -143505.39666478595, 80496.18667318663, -187500.02235174447, 91217.11149419684, -187500.02235174447, -187500.02235174447, -187500.02235174447, 0.112, 0.966, 0.21, 192.0, 0.0, 0.0, 0.0, 0.0, 0.0, 0.0, 0.0, 0.0, 0.0, 1.7184660746585968E9, 0.0, 2024-06-15 10:41:14.658
160.0, -54176.91817008474, -147701.73552056975, 76945.81323216119, -187500.02235174447, 88529.6942031019, -187500.02235174447, -187500.02235174447, -187500.02235174447, 0.112, 0.966, 0.21, 192.0, 0.0, 0.0, 0.0, 0.0, 0.0, 0.0, 0.0, 0.0, 0.0, 1.7184660746586072E9, 0.0, 2024-06-15 10:41:14.658
161.0, -55058.87330280225, -148948.82875070916, 76267.57189840935, -187500.02235174447, 88451.41839401942, -187500.02235174447, -187500.02235174447, -187500.02235174447, 0.112, 0.966, 0.21, 192.0, 0.0, 0.0, 0.0, 0.0, 0.0, 0.0, 0.0, 0.0, 0.0, 1.7184660746586175E9, 0.0, 2024-06-15 10:41:14.658
162.0, -51900.92943917864, -144914.0036003594, 79732.11464072642, -187500.02235174447, 91127.59275765333, -187500.02235174447, -187500.02235174447, -187500.02235174447, 0.116, 0.964, 0.21, 192.0, 3.0, 160.0, 30.0, 32.0, 6.0, 144.0, 0.0, 0.0, 0.0, 1.7184660746586275E9, 0.0, 2024-06-15 10:41:14.658
163.0, -51086.945961349724, -143460.9166933199, 80702.06859136446, -187500.02235174447, 91447.31211034204, -187500.02235174447, -187500.02235174447, -187500.02235174447, 0.116, 0.964, 0.21, 192.0, 0.0, 0.0, 0.0, 0.0, 0.0, 0.0, 0.0, 0.0, 0.0, 1.7184660746586378E9, 0.0, 2024-06-15 10:41:14.658
164.0, -54473.88344691795, -147263.5519222679, 77379.45942633861, -187500.02235174447, 88850.01705289091, -187500.02235174447, -187500.02235174447, -187500.02235174447, 0.116, 0.964, 0.21, 192.0, 0.0, 0.0, 0.0, 0.0, 0.0, 0.0, 0.0, 0.0, 0.0, 1.7184660746586485E9, 0.0, 2024-06-15 10:41:14.658
165.0, -56241.10177053235, -149604.94185745023, 75792.19499733389, -187500.02235174447, 88057.29008403899, -187500.02235174447, -187500.02235174447, -187500.02235174447, 0.116, 0.964, 0.21, 192.0, 0.0, 0.0, 0.0, 0.0, 0.0, 0.0, 0.0, 0.0, 0.0, 1.7184660746586585E9, 0.0, 2024-06-15 10:41:14.658
166.0, -53426.748922675724, -146036.99994528294, 78926.89304672397, -187500.02235174447, 90628.85828362206, -187500.02235174447, -187500.02235174447, -187500.02235174447, 0.116, 0.964, 0.21, 192.0, 0.0, 0.0, 0.0, 0.0, 0.0, 0.0, 0.0, 0.0, 0.0, 1.7184660746586688E9, 0.0, 2024-06-15 10:41:14.658
167.0, -51756.112486852704, -143607.52178520226, 80782.11018825891, -187500.02235174447, 91631.93751954289, -187500.02235174447, -187500.02235174447, -187500.02235174447, 0.116, 0.964, 0.21, 192.0, 0.0, 0.0, 0.0, 0.0, 0.0, 0.0, 0.0, 0.0, 0.0, 1.718466074658679E9, 0.0, 2024-06-15 10:41:14.658
168.0, -54664.11914397707, -146734.4861310108, 77943.46099417938, -187500.02235174447, 89288.44652038175, -187500.02235174447, -187500.02235174447, -187500.02235174447, 0.116, 0.964, 0.21, 192.0, 0.0, 0.0, 0.0, 0.0, 0.0, 0.0, 0.0, 0.0, 0.0, 1.7184660746586888E9, 0.0, 2024-06-15 10:41:14.658
169.0, -57177.97513937654, -149974.32678631865, 75568.99047720319, -187500.02235174447, 87821.70269748005, -187500.02235174447, -187500.02235174447, -187500.02235174447, 0.116, 0.964, 0.21, 192.0, 0.0, 0.0, 0.0, 0.0, 0.0, 0.0, 0.0, 0.0, 0.0, 1.7184660746586988E9, 0.0, 2024-06-15 10:41:14.658
170.0, -54950.89202533865, -147180.76106080547, 78108.77449617082, -187500.02235174447, 90043.95783471559, -187500.02235174447, -187500.02235174447, -187500.02235174447, 0.116, 0.964, 0.21, 192.0, 0.0, 0.0, 0.0, 0.0, 0.0, 0.0, 0.0, 0.0, 0.0, 1.718466074658709E9, 0.0, 2024-06-15 10:41:14.658
171.0, -52602.528345886276, -143979.00777804945, 80666.75283512508, -187500.02235174447, 91646.35439471656, -187500.02235174447, -187500.02235174447, -187500.02235174447, 0.116, 0.964, 0.21, 192.0, 0.0, 0.0, 0.0, 0.0, 0.0, 0.0, 0.0, 0.0, 0.0, 1.7184660746587188E9, 0.0, 2024-06-15 10:41:14.658
172.0, -54910.45771961901, -146302.292800223, 78438.4180233977, -187500.02235174447, 89708.36874346361, -187500.02235174447, -187500.02235174447, -187500.02235174447, 0.11800000000000001, 0.966, 0.202, 192.0, 3.0, 176.0, 30.0, 48.0, 6.0, 80.0, 0.0, 0.0, 0.0, 1.7184660746587293E9, 0.0, 2024-06-15 10:41:14.658
173.0, -58032.05764675828, -150223.32521955075, 75429.18031563525, -187500.02235174447, 87697.24818435291, -187500.02235174447, -187500.02235174447, -187500.02235174447, 0.11800000000000001, 0.966, 0.202, 192.0, 0.0, 0.0, 0.0, 0.0, 0.0, 0.0, 0.0, 0.0, 0.0, 1.7184660746587396E9, 0.0, 2024-06-15 10:41:14.658
174.0, -56516.408206988366, -148377.80873510943, 77246.37713985171, -187500.02235174447, 89465.29352251215, -187500.02235174447, -187500.02235174447, -187500.02235174447, 0.11800000000000001, 0.966, 0.202, 192.0, 0.0, 0.0, 0.0, 0.0, 0.0, 0.0, 0.0, 0.0, 0.0, 1.7184660746587503E9, 0.0, 2024-06-15 10:41:14.658
175.0, -53627.735808817844, -144576.0228724507, 80376.58248860628, -187500.02235174447, 91588.48572832177, -187500.02235174447, -187500.02235174447, -187500.02235174447, 0.11800000000000001, 0.966, 0.202, 192.0, 0.0, 0.0, 0.0, 0.0, 0.0, 0.0, 0.0, 0.0, 0.0, 1.7184660746587605E9, 0.0, 2024-06-15 10:41:14.658
176.0, -55132.34348682684, -145910.01968503234, 78963.30403844167, -187500.02235174447, 90197.76018831256, -187500.02235174447, -187500.02235174447, -187500.02235174447, 0.11800000000000001, 0.966, 0.202, 192.0, 0.0, 0.0, 0.0, 0.0, 0.0, 0.0, 0.0, 0.0, 0.0, 1.7184660746587703E9, 0.0, 2024-06-15 10:41:14.658
177.0, -58644.80836925607, -150221.04534161632, 75539.30736056654, -187500.02235174447, 87790.477310476, -187500.02235174447, -187500.02235174447, -187500.02235174447, 0.11800000000000001, 0.966, 0.202, 192.0, 0.0, 0.0, 0.0, 0.0, 0.0, 0.0, 0.0, 0.0, 0.0, 1.7184660746587808E9, 0.0, 2024-06-15 10:41:14.658
178.0, -57944.25999453783, -149460.05784989093, 76513.28462520655, -187500.02235174447, 88969.84475491582, -187500.02235174447, -187500.02235174447, -187500.02235174447, 0.11800000000000001, 0.966, 0.202, 192.0, 0.0, 0.0, 0.0, 0.0, 0.0, 0.0, 0.0, 0.0, 0.0, 1.7184660746587908E9, 0.0, 2024-06-15 10:41:14.658
179.0, -54716.645743447036, -145294.85497413337, 80008.91864406093, -187500.02235174447, 91482.20318343678, -187500.02235174447, -187500.02235174447, -187500.02235174447, 0.11800000000000001, 0.966, 0.202, 192.0, 0.0, 0.0, 0.0, 0.0, 0.0, 0.0, 0.0, 0.0, 0.0, 1.7184660746588013E9, 0.0, 2024-06-15 10:41:14.658
180.0, -55384.359405560426, -145608.3605418635, 79451.39908211221, -187500.02235174447, 90691.08554018564, -187500.02235174447, -187500.02235174447, -187500.02235174447, 0.11800000000000001, 0.966, 0.202, 192.0, 0.0, 0.0, 0.0, 0.0, 0.0, 0.0, 0.0, 0.0, 0.0, 1.7184660746588116E9, 0.0, 2024-06-15 10:41:14.658
181.0, -59064.529426637826, -150000.18775465342, 75845.59331483762, -187500.02235174447, 88050.6292641913, -187500.02235174447, -187500.02235174447, -187500.02235174447, 0.11800000000000001, 0.966, 0.202, 192.0, 0.0, 0.0, 0.0, 0.0, 0.0, 0.0, 0.0, 0.0, 0.0, 1.718466074658822E9, 0.0, 2024-06-15 10:41:14.658
182.0, -59274.97110068454, -150408.06238747388, 75888.37455372508, -187500.02235174447, 88543.5522846642, -187500.02235174447, -187500.02235174447, -187500.02235174447, 0.112, 0.966, 0.194, 192.0, 3.0, 128.0, 30.0, 48.0, 6.0, 16.0, 0.0, 0.0, 0.0, 1.7184660746588323E9, 0.0, 2024-06-15 10:41:14.658
183.0, -55986.94008433105, -146190.26585701297, 79479.53992838143, -187500.02235174447, 91247.21929397814, -187500.02235174447, -187500.02235174447, -187500.02235174447, 0.112, 0.966, 0.194, 192.0, 0.0, 0.0, 0.0, 0.0, 0.0, 0.0, 0.0, 0.0, 0.0, 1.7184660746588423E9, 0.0, 2024-06-15 10:41:14.658
184.0, -55753.29729953972, -145424.49509197415, 79857.5526306096, -187500.02235174447, 91135.6617374017, -187500.02235174447, -187500.02235174447, -187500.02235174447, 0.112, 0.966, 0.194, 192.0, 0.0, 0.0, 0.0, 0.0, 0.0, 0.0, 0.0, 0.0, 0.0, 1.7184660746588523E9, 0.0, 2024-06-15 10:41:14.658
185.0, -59328.12354899926, -149556.21505453766, 76360.44339662117, -187500.02235174447, 88481.16856588943, -187500.02235174447, -187500.02235174447, -187500.02235174447, 0.112, 0.966, 0.194, 192.0, 0.0, 0.0, 0.0, 0.0, 0.0, 0.0, 0.0, 0.0, 0.0, 1.7184660746588657E9, 0.0, 2024-06-15 10:41:14.658
186.0, -60477.673766335705, -151134.58348924917, 75440.3561878629, -187500.02235174447, 88223.43060057529, -187500.02235174447, -187500.02235174447, -187500.02235174447, 0.112, 0.966, 0.194, 192.0, 0.0, 0.0, 0.0, 0.0, 0.0, 0.0, 0.0, 0.0, 0.0, 1.7184660746588905E9, 0.0, 2024-06-15 10:41:14.658
187.0, -57334.70557149716, -147132.66010673763, 78913.48200005079, -187500.02235174447, 90963.17332544009, -187500.02235174447, -187500.02235174447, -187500.02235174447, 0.112, 0.966, 0.194, 192.0, 0.0, 0.0, 0.0, 0.0, 0.0, 0.0, 0.0, 0.0, 0.0, 1.718466074658906E9, 0.0, 2024-06-15 10:41:14.658
188.0, -56197.62762756678, -145317.1396633553, 80219.71794601894, -187500.02235174447, 91535.28857651813, -187500.02235174447, -187500.02235174447, -187500.02235174447, 0.112, 0.966, 0.194, 192.0, 0.0, 0.0, 0.0, 0.0, 0.0, 0.0, 0.0, 0.0, 0.0, 1.718466074658961E9, 0.0, 2024-06-15 10:41:14.658
189.0, -59454.410905171746, -148943.33022157315, 77038.50591641736, -187500.02235174447, 89006.47926407807, -187500.02235174447, -187500.02235174447, -187500.02235174447, 0.112, 0.966, 0.194, 192.0, 0.0, 0.0, 0.0, 0.0, 0.0, 0.0, 0.0, 0.0, 0.0, 1.7184660746589723E9, 0.0, 2024-06-15 10:41:14.658
190.0, -61406.03112054242, -151519.5699357474, 75269.03006661298, -187500.02235174447, 88040.03453731949, -187500.02235174447, -187500.02235174447, -187500.02235174447, 0.112, 0.966, 0.194, 192.0, 0.0, 0.0, 0.0, 0.0, 0.0, 0.0, 0.0, 0.0, 0.0, 1.7184660746589828E9, 0.0, 2024-06-15 10:41:14.658
191.0, -58698.050224548606, -148093.33808342673, 78310.14136196868, -187500.02235174447, 90561.15484966694, -187500.02235174447, -187500.02235174447, -187500.02235174447, 0.112, 0.966, 0.194, 192.0, 0.0, 0.0, 0.0, 0.0, 0.0, 0.0, 0.0, 0.0, 0.0, 1.7184660746589932E9, 0.0, 2024-06-15 10:41:14.658
192.0, -56786.12670733056, -145383.72551008768, 80419.6319484272, -187500.02235174447, 91766.405614186, -187500.02235174447, -187500.02235174447, -187500.02235174447, 0.112, 0.966, 0.194, 192.0, 0.0, 0.0, 0.0, 0.0, 0.0, 0.0, 0.0, 0.0, 0.0, 1.7184660746590147E9, 0.0, 2024-06-15 10:41:14.659
193.0, -59506.691635452706, -148269.000443101, 77774.57121307508, -187500.02235174447, 89547.92792176342, -187500.02235174447, -187500.02235174447, -187500.02235174447, 0.126, 0.968, 0.2, 192.0, 3.0, 240.0, 30.0, 64.0, 6.0, 64.0, 0.0, 0.0, 0.0, 1.718466074659036E9, 0.0, 2024-06-15 10:41:14.659
194.0, -62186.039946799276, -151699.59088559044, 75240.12926103226, -187500.02235174447, 87940.27870181546, -187500.02235174447, -187500.02235174447, -187500.02235174447, 0.126, 0.968, 0.2, 192.0, 0.0, 0.0, 0.0, 0.0, 0.0, 0.0, 0.0, 0.0, 0.0, 1.7184660746590548E9, 0.0, 2024-06-15 10:41:14.659
195.0, -60089.02163374682, -149082.42512731854, 77661.31492392003, -187500.02235174447, 90098.40668420872, -187500.02235174447, -187500.02235174447, -187500.02235174447, 0.126, 0.968, 0.2, 192.0, 0.0, 0.0, 0.0, 0.0, 0.0, 0.0, 0.0, 0.0, 0.0, 1.7184660746590757E9, 0.0, 2024-06-15 10:41:14.659
196.0, -57514.81592831802, -145621.86099551452, 80460.75915822496, -187500.02235174447, 91895.93397330452, -187500.02235174447, -187500.02235174447, -187500.02235174447, 0.126, 0.968, 0.2, 192.0, 0.0, 0.0, 0.0, 0.0, 0.0, 0.0, 0.0, 0.0, 0.0, 1.7184660746590981E9, 0.0, 2024-06-15 10:41:14.659
197.0, -59533.55843228799, -147599.20806875327, 78525.6345302623, -187500.02235174447, 90139.44448702867, -187500.02235174447, -187500.02235174447, -187500.02235174447, 0.126, 0.968, 0.2, 192.0, 0.0, 0.0, 0.0, 0.0, 0.0, 0.0, 0.0, 0.0, 0.0, 1.718466074659118E9, 0.0, 2024-06-15 10:41:14.659
198.0, -62728.15915681829, -151594.47063141712, 75442.14432741933, -187500.02235174447, 88029.19394125867, -187500.02235174447, -187500.02235174447, -187500.02235174447, 0.126, 0.968, 0.2, 192.0, 0.0, 0.0, 0.0, 0.0, 0.0, 0.0, 0.0, 0.0, 0.0, 1.7184660746591408E9, 0.0, 2024-06-15 10:41:14.659
199.0, -61380.0360417409, -149976.42785029745, 77091.5466060098, -187500.02235174447, 89663.44173710844, -187500.02235174447, -187500.02235174447, -187500.02235174447, 0.126, 0.968, 0.2, 192.0, 0.0, 0.0, 0.0, 0.0, 0.0, 0.0, 0.0, 0.0, 0.0, 1.7184660746591606E9, 0.0, 2024-06-15 10:41:14.659
200.0, -58304.79363260193, -145966.0555083818, 80411.6300239122, -187500.02235174447, 91934.55778772329, -187500.02235174447, -187500.02235174447, -187500.02235174447, 0.126, 0.968, 0.2, 192.0, 0.0, 0.0, 0.0, 0.0, 0.0, 0.0, 0.0, 0.0, 0.0, 1.7184660746591983E9, 0.0, 2024-06-15 10:41:14.659
201.0, -59538.18524339024, -146969.44766872498, 79266.97483861147, -187500.02235174447, 90699.57920307865, -187500.02235174447, -187500.02235174447, -187500.02235174447, 0.126, 0.968, 0.2, 192.0, 0.0, 0.0, 0.0, 0.0, 0.0, 0.0, 0.0, 0.0, 0.0, 1.7184660746592176E9, 0.0, 2024-06-15 10:41:14.659
202.0, -63058.227367189815, -151262.52487451135, 75828.31541637366, -187500.02235174447, 88232.19248440176, -187500.02235174447, -187500.02235174447, -187500.02235174447, 0.126, 0.968, 0.2, 192.0, 0.0, 0.0, 0.0, 0.0, 0.0, 0.0, 0.0, 0.0, 0.0, 1.718466074659237E9, 0.0, 2024-06-15 10:41:14.659
203.0, -62552.45209365513, -150759.6329760114, 76597.43894308078, -187500.02235174447, 89236.74693545663, -187500.02235174447, -187500.02235174447, -187500.02235174447, 0.124, 0.966, 0.198, 192.0, 3.0, 224.0, 30.0, 48.0, 6.0, 48.0, 0.0, 0.0, 0.0, 1.718466074659258E9, 0.0, 2024-06-15 10:41:14.659
204.0, -59265.225740102025, -146527.66543956584, 80150.3157794852, -187500.02235174447, 91800.17910005798, -187500.02235174447, -187500.02235174447, -187500.02235174447, 0.124, 0.966, 0.198, 192.0, 0.0, 0.0, 0.0, 0.0, 0.0, 0.0, 0.0, 0.0, 0.0, 1.7184660746592777E9, 0.0, 2024-06-15 10:41:14.659
205.0, -59656.60478551445, -146511.05809343554, 79868.88496504843, -187500.02235174447, 91187.271915349, -187500.02235174447, -187500.02235174447, -187500.02235174447, 0.124, 0.966, 0.198, 192.0, 0.0, 0.0, 0.0, 0.0, 0.0, 0.0, 0.0, 0.0, 0.0, 1.7184660746593032E9, 0.0, 2024-06-15 10:41:14.659
206.0, -63267.14912261357, -150789.53961009262, 76327.94396018314, -187500.02235174447, 88541.67473812995, -187500.02235174447, -187500.02235174447, -187500.02235174447, 0.124, 0.966, 0.198, 192.0, 0.0, 0.0, 0.0, 0.0, 0.0, 0.0, 0.0, 0.0, 0.0, 1.7184660746593225E9, 0.0, 2024-06-15 10:41:14.659
207.0, -63716.41918616524, -151504.39310126225, 76114.90948377961, -187500.02235174447, 88807.0570000478, -187500.02235174447, -187500.02235174447, -187500.02235174447, 0.124, 0.966, 0.198, 192.0, 0.0, 0.0, 0.0, 0.0, 0.0, 0.0, 0.0, 0.0, 0.0, 1.7184660746593423E9, 0.0, 2024-06-15 10:41:14.659
208.0, -60385.67398615766, -147268.9610444261, 79734.88625703887, -187500.02235174447, 91536.24970152971, -187500.02235174447, -187500.02235174447, -187500.02235174447, 0.124, 0.966, 0.198, 192.0, 0.0, 0.0, 0.0, 0.0, 0.0, 0.0, 0.0, 0.0, 0.0, 1.718466074659362E9, 0.0, 2024-06-15 10:41:14.659
209.0, -59901.468146022344, -146216.79737768142, 80351.03444469387, -187500.02235174447, 91576.50519329372, -187500.02235174447, -187500.02235174447, -187500.02235174447, 0.124, 0.966, 0.198, 192.0, 0.0, 0.0, 0.0, 0.0, 0.0, 0.0, 0.0, 0.0, 0.0, 1.7184660746593816E9, 0.0, 2024-06-15 10:41:14.659
210.0, -63390.843676429235, -150210.1600420666, 76931.1057843096, -187500.02235174447, 88933.14319052019, -187500.02235174447, -187500.02235174447, -187500.02235174447, 0.124, 0.966, 0.198, 192.0, 0.0, 0.0, 0.0, 0.0, 0.0, 0.0, 0.0, 0.0, 0.0, 1.7184660746594017E9, 0.0, 2024-06-15 10:41:14.659
211.0, -64729.62376232431, -152042.19842460137, 75788.8869391545, -187500.02235174447, 88472.25021985176, -187500.02235174447, -187500.02235174447, -187500.02235174447, 0.124, 0.966, 0.198, 192.0, 0.0, 0.0, 0.0, 0.0, 0.0, 0.0, 0.0, 0.0, 0.0, 1.7184660746594205E9, 0.0, 2024-06-15 10:41:14.659
212.0, -61647.13938798182, -148154.04542136734, 79172.02462816532, -187500.02235174447, 91164.80841217142, -187500.02235174447, -187500.02235174447, -187500.02235174447, 0.124, 0.966, 0.198, 192.0, 0.0, 0.0, 0.0, 0.0, 0.0, 0.0, 0.0, 0.0, 0.0, 1.7184660746594403E9, 0.0, 2024-06-15 10:41:14.659
213.0, -60283.951197141556, -146084.54210573938, 80693.26200404907, -187500.02235174447, 91905.76874086485, -187500.02235174447, -187500.02235174447, -187500.02235174447, 0.132, 0.968, 0.196, 192.0, 4.0, 32.0, 30.0, 64.0, 6.0, 32.0, 0.0, 0.0, 0.0, 1.7184660746594608E9, 0.0, 2024-06-15 10:41:14.659
214.0, -63427.99227571396, -149529.66118212478, 77620.7688594781, -187500.02235174447, 89430.51420813969, -187500.02235174447, -187500.02235174447, -187500.02235174447, 0.132, 0.968, 0.196, 192.0, 0.0, 0.0, 0.0, 0.0, 0.0, 0.0, 0.0, 0.0, 0.0, 1.7184660746594803E9, 0.0, 2024-06-15 10:41:14.659
215.0, -65588.9812813975, -152348.2608614279, 75621.98646330672, -187500.02235174447, 88272.69384535478, -187500.02235174447, -187500.02235174447, -187500.02235174447, 0.132, 0.968, 0.196, 192.0, 0.0, 0.0, 0.0, 0.0, 0.0, 0.0, 0.0, 0.0, 0.0, 1.7184660746594996E9, 0.0, 2024-06-15 10:41:14.659
216.0, -62983.70665117582, -149087.81189773226, 78528.29438785248, -187500.02235174447, 90718.48877888786, -187500.02235174447, -187500.02235174447, -187500.02235174447, 0.132, 0.968, 0.196, 192.0, 0.0, 0.0, 0.0, 0.0, 0.0, 0.0, 0.0, 0.0, 0.0, 1.7184660746595194E9, 0.0, 2024-06-15 10:41:14.659
217.0, -60883.134410754974, -146170.43985968112, 80805.6242234259, -187500.02235174447, 92065.89663814267, -187500.02235174447, -187500.02235174447, -187500.02235174447, 0.132, 0.968, 0.196, 192.0, 0.0, 0.0, 0.0, 0.0, 0.0, 0.0, 0.0, 0.0, 0.0, 1.7184660746595385E9, 0.0, 2024-06-15 10:41:14.659
218.0, -63408.054519659825, -148785.10222257403, 78345.993560075, -187500.02235174447, 89963.44685118757, -187500.02235174447, -187500.02235174447, -187500.02235174447, 0.132, 0.968, 0.196, 192.0, 0.0, 0.0, 0.0, 0.0, 0.0, 0.0, 0.0, 0.0, 0.0, 1.7184660746595576E9, 0.0, 2024-06-15 10:41:14.659
219.0, -66252.96220218686, -152382.30256823334, 75630.14485003291, -187500.02235174447, 88195.20034732824, -187500.02235174447, -187500.02235174447, -187500.02235174447, 0.132, 0.968, 0.196, 192.0, 0.0, 0.0, 0.0, 0.0, 0.0, 0.0, 0.0, 0.0, 0.0, 1.7184660746595767E9, 0.0, 2024-06-15 10:41:14.659
220.0, -64316.451766067956, -149997.9525802079, 77865.60986824153, -187500.02235174447, 90226.1469037708, -187500.02235174447, -187500.02235174447, -187500.02235174447, 0.132, 0.968, 0.196, 192.0, 0.0, 0.0, 0.0, 0.0, 0.0, 0.0, 0.0, 0.0, 0.0, 1.7184660746595967E9, 0.0, 2024-06-15 10:41:14.659
221.0, -61550.3786862348, -146339.66491695226, 80834.03329062859, -187500.02235174447, 92163.14907826771, -187500.02235174447, -187500.02235174447, -187500.02235174447, 0.132, 0.968, 0.196, 192.0, 0.0, 0.0, 0.0, 0.0, 0.0, 0.0, 0.0, 0.0, 0.0, 1.718466074659616E9, 0.0, 2024-06-15 10:41:14.659
222.0, -63363.32867900476, -148037.3916670551, 79100.00730753032, -187500.02235174447, 90542.24527385776, -187500.02235174447, -187500.02235174447, -187500.02235174447, 0.132, 0.968, 0.196, 192.0, 0.0, 0.0, 0.0, 0.0, 0.0, 0.0, 0.0, 0.0, 0.0, 1.7184660746596358E9, 0.0, 2024-06-15 10:41:14.659
223.0, -66653.84073899279, -152098.54717237322, 75910.18985631346, -187500.02235174447, 88323.1417325904, -187500.02235174447, -187500.02235174447, -187500.02235174447, 0.134, 0.972, 0.196, 192.0, 4.0, 48.0, 30.0, 96.0, 6.0, 32.0, 0.0, 0.0, 0.0, 1.7184660746596563E9, 0.0, 2024-06-15 10:41:14.659
224.0, -65472.86396895218, -150720.31625751453, 77359.67813249567, -187500.02235174447, 89802.96132599848, -187500.02235174447, -187500.02235174447, -187500.02235174447, 0.134, 0.972, 0.196, 192.0, 0.0, 0.0, 0.0, 0.0, 0.0, 0.0, 0.0, 0.0, 0.0, 1.7184660746596773E9, 0.0, 2024-06-15 10:41:14.659
225.0, -62325.06779731128, -146639.04418218663, 80728.98009168865, -187500.02235174447, 92130.44847612959, -187500.02235174447, -187500.02235174447, -187500.02235174447, 0.134, 0.972, 0.196, 192.0, 0.0, 0.0, 0.0, 0.0, 0.0, 0.0, 0.0, 0.0, 0.0, 1.718466074659698E9, 0.0, 2024-06-15 10:41:14.659
226.0, -63313.84191678071, -147329.2213474776, 79826.95309245028, -187500.02235174447, 91077.45779484008, -187500.02235174447, -187500.02235174447, -187500.02235174447, 0.134, 0.972, 0.196, 192.0, 0.0, 0.0, 0.0, 0.0, 0.0, 0.0, 0.0, 0.0, 0.0, 1.7184660746597185E9, 0.0, 2024-06-15 10:41:14.659
227.0, -66871.47967475411, -151598.51629716353, 76348.14993717075, -187500.02235174447, 88549.02846205575, -187500.02235174447, -187500.02235174447, -187500.02235174447, 0.134, 0.972, 0.196, 192.0, 0.0, 0.0, 0.0, 0.0, 0.0, 0.0, 0.0, 0.0, 0.0, 1.7184660746597393E9, 0.0, 2024-06-15 10:41:14.659
228.0, -66586.33847073776, -151379.80447766837, 76866.17396666695, -187500.02235174447, 89352.37250952394, -187500.02235174447, -187500.02235174447, -187500.02235174447, 0.134, 0.972, 0.196, 192.0, 0.0, 0.0, 0.0, 0.0, 0.0, 0.0, 0.0, 0.0, 0.0, 1.7184660746597595E9, 0.0, 2024-06-15 10:41:14.659
229.0, -63225.91015409353, -147092.20344927354, 80470.7503879965, -187500.02235174447, 91987.88904999365, -187500.02235174447, -187500.02235174447, -187500.02235174447, 0.134, 0.972, 0.196, 192.0, 0.0, 0.0, 0.0, 0.0, 0.0, 0.0, 0.0, 0.0, 0.0, 1.7184660746597805E9, 0.0, 2024-06-15 10:41:14.659
230.0, -63320.659198839574, -146717.61056394703, 80478.57349855584, -187500.02235174447, 91590.40797834493, -187500.02235174447, -187500.02235174447, -187500.02235174447, 0.134, 0.972, 0.196, 192.0, 0.0, 0.0, 0.0, 0.0, 0.0, 0.0, 0.0, 0.0, 0.0, 1.718466074659798E9, 0.0, 2024-06-15 10:41:14.659
231.0, -66898.56998903395, -150876.7114134683, 76970.28839233976, -187500.02235174447, 88945.92838834864, -187500.02235174447, -187500.02235174447, -187500.02235174447, 0.134, 0.972, 0.196, 192.0, 0.0, 0.0, 0.0, 0.0, 0.0, 0.0, 0.0, 0.0, 0.0, 1.718466074659818E9, 0.0, 2024-06-15 10:41:14.659
232.0, -67592.50224739341, -151878.98598658873, 76486.59664232691, -187500.02235174447, 89014.48118859305, -187500.02235174447, -187500.02235174447, -187500.02235174447, 0.134, 0.972, 0.196, 192.0, 0.0, 0.0, 0.0, 0.0, 0.0, 0.0, 0.0, 0.0, 0.0, 1.718466074659836E9, 0.0, 2024-06-15 10:41:14.659
233.0, -64295.9775681469, -147711.39147417445, 80041.50748747677, -187500.02235174447, 91729.86051200159, -187500.02235174447, -187500.02235174447, -187500.02235174447, 0.134, 0.972, 0.196, 192.0, 0.0, 0.0, 0.0, 0.0, 0.0, 0.0, 0.0, 0.0, 0.0, 1.718466074659855E9, 0.0, 2024-06-15 10:41:14.659
234.0, -63522.629561737725, -146323.52695745553, 80925.51898068417, -187500.02235174447, 91971.37111084118, -187500.02235174447, -187500.02235174447, -187500.02235174447, 0.124, 0.97, 0.2, 192.0, 3.0, 224.0, 30.0, 80.0, 6.0, 64.0, 0.0, 0.0, 0.0, 1.7184660746598735E9, 0.0, 2024-06-15 10:41:14.659
235.0, -66912.98686420762, -150116.70739849895, 77601.07697261298, -187500.02235174447, 89379.66398950387, -187500.02235174447, -187500.02235174447, -187500.02235174447, 0.124, 0.97, 0.2, 192.0, 0.0, 0.0, 0.0, 0.0, 0.0, 0.0, 0.0, 0.0, 0.0, 1.718466074659892E9, 0.0, 2024-06-15 10:41:14.659
236.0, -68497.03264201077, -152212.183441184, 76195.59928126328, -187500.02235174447, 88711.97267913494, -187500.02235174447, -187500.02235174447, -187500.02235174447, 0.124, 0.97, 0.2, 192.0, 0.0, 0.0, 0.0, 0.0, 0.0, 0.0, 0.0, 0.0, 0.0, 1.718466074659911E9, 0.0, 2024-06-15 10:41:14.659
237.0, -65488.37607960416, -148451.27891913403, 79470.5098236215, -187500.02235174447, 91347.42216437128, -187500.02235174447, -187500.02235174447, -187500.02235174447, 0.124, 0.97, 0.2, 192.0, 0.0, 0.0, 0.0, 0.0, 0.0, 0.0, 0.0, 0.0, 0.0, 1.7184660746599298E9, 0.0, 2024-06-15 10:41:14.659
238.0, -63878.64814742186, -146111.40890257465, 81213.23063531288, -187500.02235174447, 92258.81454453642, -187500.02235174447, -187500.02235174447, -187500.02235174447, 0.124, 0.97, 0.2, 192.0, 0.0, 0.0, 0.0, 0.0, 0.0, 0.0, 0.0, 0.0, 0.0, 1.7184660746599479E9, 0.0, 2024-06-15 10:41:14.659
239.0, -66844.99285757457, -149281.98150181552, 78319.55144638437, -187500.02235174447, 89892.52476603088, -187500.02235174447, -187500.02235174447, -187500.02235174447, 0.124, 0.97, 0.2, 192.0, 0.0, 0.0, 0.0, 0.0, 0.0, 0.0, 0.0, 0.0, 0.0, 1.7184660746599665E9, 0.0, 2024-06-15 10:41:14.659
240.0, -69200.4867435082, -152292.6497212231, 76112.67430933408, -187500.02235174447, 88556.67275865946, -187500.02235174447, -187500.02235174447, -187500.02235174447, 0.124, 0.97, 0.2, 192.0, 0.0, 0.0, 0.0, 0.0, 0.0, 0.0, 0.0, 0.0, 0.0, 1.7184660746599846E9, 0.0, 2024-06-15 10:41:14.659
241.0, -66694.11858250125, -149208.17604162407, 78882.614240958, -187500.02235174447, 90905.21525206749, -187500.02235174447, -187500.02235174447, -187500.02235174447, 0.124, 0.97, 0.2, 192.0, 0.0, 0.0, 0.0, 0.0, 0.0, 0.0, 0.0, 0.0, 0.0, 1.7184660746600027E9, 0.0, 2024-06-15 10:41:14.660
242.0, -64339.40700762356, -146035.03299177086, 81383.79679725133, -187500.02235174447, 92419.97062205919, -187500.02235174447, -187500.02235174447, -187500.02235174447, 0.124, 0.97, 0.2, 192.0, 0.0, 0.0, 0.0, 0.0, 0.0, 0.0, 0.0, 0.0, 0.0, 1.7184660746600213E9, 0.0, 2024-06-15 10:41:14.660
243.0, -66690.69876559959, -148384.53661019047, 79107.69630762296, -187500.02235174447, 90435.33688012802, -187500.02235174447, -187500.02235174447, -187500.02235174447, 0.124, 0.97, 0.2, 192.0, 0.0, 0.0, 0.0, 0.0, 0.0, 0.0, 0.0, 0.0, 0.0, 1.7184660751388888E9, 0.0, 2024-06-15 10:41:15.138
244.0, -69654.42832165102, -152070.27221563723, 76261.53692740643, -187500.02235174447, 88533.33753744813, -187500.02235174447, -187500.02235174447, -187500.02235174447, 0.11800000000000001, 0.962, 0.20400000000000001, 192.0, 3.0, 176.0, 30.0, 16.0, 6.0, 96.0, 0.0, 0.0, 0.0, 1.7184660751390457E9, 0.0, 2024-06-15 10:41:15.139
245.0, -67874.29068974147, -149934.630088166, 78294.89747225016, -187500.02235174447, 90412.78396997262, -187500.02235174447, -187500.02235174447, -187500.02235174447, 0.11800000000000001, 0.962, 0.20400000000000001, 192.0, 0.0, 0.0, 0.0, 0.0, 0.0, 0.0, 0.0, 0.0, 0.0, 1.7184660751390631E9, 0.0, 2024-06-15 10:41:15.139
246.0, -64962.685401759794, -146156.2017984631, 81371.07865465626, -187500.02235174447, 92447.46326773922, -187500.02235174447, -187500.02235174447, -187500.02235174447, 0.11800000000000001, 0.962, 0.20400000000000001, 192.0, 0.0, 0.0, 0.0, 0.0, 0.0, 0.0, 0.0, 0.0, 0.0, 1.7184660751390789E9, 0.0, 2024-06-15 10:41:15.139
247.0, -66565.14901699412, -147570.21785619474, 79844.81213627006, -187500.02235174447, 90954.90317999163, -187500.02235174447, -187500.02235174447, -187500.02235174447, 0.11800000000000001, 0.962, 0.20400000000000001, 192.0, 0.0, 0.0, 0.0, 0.0, 0.0, 0.0, 0.0, 0.0, 0.0, 1.7184660751390996E9, 0.0, 2024-06-15 10:41:15.139
248.0, -70007.13884915577, -151726.74825510362, 76505.19329371373, -187500.02235174447, 88596.57062251218, -187500.02235174447, -187500.02235174447, -187500.02235174447, 0.11800000000000001, 0.962, 0.20400000000000001, 192.0, 0.0, 0.0, 0.0, 0.0, 0.0, 0.0, 0.0, 0.0, 0.0, 1.7184660751391115E9, 0.0, 2024-06-15 10:41:15.139
249.0, -69076.25574782559, -150687.1686204873, 77669.27214494612, -187500.02235174447, 89880.03014088036, -187500.02235174447, -187500.02235174447, -187500.02235174447, 0.11800000000000001, 0.962, 0.20400000000000001, 192.0, 0.0, 0.0, 0.0, 0.0, 0.0, 0.0, 0.0, 0.0, 0.0, 1.7184660751391451E9, 0.0, 2024-06-15 10:41:15.139
250.0, -65837.26445880705, -146563.6517481389, 81094.81109318866, -187500.02235174447, 92287.9388675617, -187500.02235174447, -187500.02235174447, -187500.02235174447, 0.11800000000000001, 0.962, 0.20400000000000001, 192.0, 0.0, 0.0, 0.0, 0.0, 0.0, 0.0, 0.0, 0.0, 0.0, 1.718466075139156E9, 0.0, 2024-06-15 10:41:15.139
251.0, -66592.8204766298, -146960.19404652048, 80421.30832926134, -187500.02235174447, 91397.73594114017, -187500.02235174447, -187500.02235174447, -187500.02235174447, 0.11800000000000001, 0.962, 0.20400000000000001, 192.0, 0.0, 0.0, 0.0, 0.0, 0.0, 0.0, 0.0, 0.0, 0.0, 1.718466075139166E9, 0.0, 2024-06-15 10:41:15.139
252.0, -70223.30256978305, -151212.85929833166, 76881.395504641, -187500.02235174447, 88790.33789519523, -187500.02235174447, -187500.02235174447, -187500.02235174447, 0.11800000000000001, 0.962, 0.20400000000000001, 192.0, 0.0, 0.0, 0.0, 0.0, 0.0, 0.0, 0.0, 0.0, 0.0, 1.7184660751391764E9, 0.0, 2024-06-15 10:41:15.139
253.0, -70220.15097381485, -151349.56256742033, 77096.50869327888, -187500.02235174447, 89382.99439942771, -187500.02235174447, -187500.02235174447, -187500.02235174447, 0.11800000000000001, 0.962, 0.20400000000000001, 192.0, 0.0, 0.0, 0.0, 0.0, 0.0, 0.0, 0.0, 0.0, 0.0, 1.718466075139187E9, 0.0, 2024-06-15 10:41:15.139
254.0, -66809.49828737954, -147085.22970500347, 80713.49033278112, -187500.02235174447, 92060.77808866241, -187500.02235174447, -187500.02235174447, -187500.02235174447, 0.11, 0.972, 0.212, 192.0, 3.0, 112.0, 30.0, 96.0, 6.0, 160.0, 0.0, 0.0, 0.0, 1.7184660751391973E9, 0.0, 2024-06-15 10:41:15.139
255.0, -66659.74159952899, -146433.74340936463, 80952.18461181935, -187500.02235174447, 91819.40160028954, -187500.02235174447, -187500.02235174447, -187500.02235174447, 0.11, 0.972, 0.212, 192.0, 0.0, 0.0, 0.0, 0.0, 0.0, 0.0, 0.0, 0.0, 0.0, 1.7184660751392095E9, 0.0, 2024-06-15 10:41:15.139
0.0, -70247.04012239458, -150499.25750485153, 77448.79453763897, -187500.02235174447, 89141.57320756593, -187500.02235174447, -187500.02235174447, -187500.02235174447, 0.11, 0.972, 0.212, 192.0, 0.0, 0.0, 0.0, 0.0, 0.0, 0.0, 0.0, 0.0, 0.0, 1.7184660751392207E9, 0.0, 2024-06-15 10:41:15.139
1.0, -71243.50324195663, -151854.95786129928, 76642.56711513604, -187500.02235174447, 88939.62519641223, -187500.02235174447, -187500.02235174447, -187500.02235174447, 0.11, 0.972, 0.212, 192.0, 0.0, 0.0, 0.0, 0.0, 0.0, 0.0, 0.0, 0.0, 0.0, 1.718466075139232E9, 0.0, 2024-06-15 10:41:15.139
2.0, -67976.21464445766, -147812.35430387908, 80133.26139846581, -187500.02235174447, 91654.84805760958, -187500.02235174447, -187500.02235174447, -187500.02235174447, 0.11, 0.972, 0.212, 192.0, 0.0, 0.0, 0.0, 0.0, 0.0, 0.0, 0.0, 0.0, 0.0, 1.7184660751392417E9, 0.0, 2024-06-15 10:41:15.139
3.0, -66971.50373119161, -146184.38734822124, 81241.03620541528, -187500.02235174447, 92061.31453052933, -187500.02235174447, -187500.02235174447, -187500.02235174447, 0.11, 0.972, 0.212, 192.0, 0.0, 0.0, 0.0, 0.0, 0.0, 0.0, 0.0, 0.0, 0.0, 1.7184660751392512E9, 0.0, 2024-06-15 10:41:15.139
4.0, -70359.29058304914, -149864.9820524433, 77945.07031978015, -187500.02235174447, 89458.45388870883, -187500.02235174447, -187500.02235174447, -187500.02235174447, 0.11, 0.972, 0.212, 192.0, 0.0, 0.0, 0.0, 0.0, 0.0, 0.0, 0.0, 0.0, 0.0, 1.7184660751392612E9, 0.0, 2024-06-15 10:41:15.139
5.0, -72180.30955556745, -152213.3233801512, 76296.51740747898, -187500.02235174447, 88592.45790153241, -187500.02235174447, -187500.02235174447, -187500.02235174447, 0.11, 0.972, 0.212, 192.0, 0.0, 0.0, 0.0, 0.0, 0.0, 0.0, 0.0, 0.0, 0.0, 1.7184660751392715E9, 0.0, 2024-06-15 10:41:15.139
6.0, -69224.31370309755, -148611.65268560086, 79485.06080926191, -187500.02235174447, 91182.30982807993, -187500.02235174447, -187500.02235174447, -187500.02235174447, 0.11, 0.972, 0.212, 192.0, 0.0, 0.0, 0.0, 0.0, 0.0, 0.0, 0.0, 0.0, 0.0, 1.7184660751392827E9, 0.0, 2024-06-15 10:41:15.139
7.0, -67415.38702432955, -146083.2233528165, 81407.48964637396, -187500.02235174447, 92216.94972717164, -187500.02235174447, -187500.02235174447, -187500.02235174447, 0.11, 0.972, 0.212, 192.0, 0.0, 0.0, 0.0, 0.0, 0.0, 0.0, 0.0, 0.0, 0.0, 1.7184660751392927E9, 0.0, 2024-06-15 10:41:15.139
8.0, -70317.31400696207, -149080.77109822884, 78596.42250495226, -187500.02235174447, 89890.69192298556, -187500.02235174447, -187500.02235174447, -187500.02235174447, 0.112, 0.974, 0.21, 192.0, 3.0, 128.0, 30.0, 112.0, 6.0, 144.0, 0.0, 0.0, 0.0, 1.7184660751393027E9, 0.0, 2024-06-15 10:41:15.139
9.0, -72925.58377094076, -152319.449462825, 76134.69077762256, -187500.02235174447, 88362.07847143155, -187500.02235174447, -187500.02235174447, -187500.02235174447, 0.112, 0.974, 0.21, 192.0, 0.0, 0.0, 0.0, 0.0, 0.0, 0.0, 0.0, 0.0, 0.0, 1.7184660751393137E9, 0.0, 2024-06-15 10:41:15.139
10.0, -70585.06555379218, -149511.9809522606, 78714.46206742074, -187500.02235174447, 90614.62022240403, -187500.02235174447, -187500.02235174447, -187500.02235174447, 0.112, 0.974, 0.21, 192.0, 0.0, 0.0, 0.0, 0.0, 0.0, 0.0, 0.0, 0.0, 0.0, 1.7184660751393256E9, 0.0, 2024-06-15 10:41:15.139
11.0, -68050.15421511582, -146196.14436580474, 81381.78514025034, -187500.02235174447, 92279.22168722413, -187500.02235174447, -187500.02235174447, -187500.02235174447, 0.112, 0.974, 0.21, 192.0, 0.0, 0.0, 0.0, 0.0, 0.0, 0.0, 0.0, 0.0, 0.0, 1.7184660751393359E9, 0.0, 2024-06-15 10:41:15.139
12.0, -70256.65137251036, -148314.12861515625, 79262.32567576476, -187500.02235174447, 90395.32725755301, -187500.02235174447, -187500.02235174447, -187500.02235174447, 0.112, 0.974, 0.21, 192.0, 0.0, 0.0, 0.0, 0.0, 0.0, 0.0, 0.0, 0.0, 0.0, 1.7184660751393461E9, 0.0, 2024-06-15 10:41:15.139
13.0, -73402.88292203938, -152131.09131230012, 76234.46896487105, -187500.02235174447, 88340.88901768792, -187500.02235174447, -187500.02235174447, -187500.02235174447, 0.112, 0.974, 0.21, 192.0, 0.0, 0.0, 0.0, 0.0, 0.0, 0.0, 0.0, 0.0, 0.0, 1.718466075139356E9, 0.0, 2024-06-15 10:41:15.139
14.0, -71776.32412628224, -150257.34457461175, 78084.4781499479, -187500.02235174447, 90109.69431515865, -187500.02235174447, -187500.02235174447, -187500.02235174447, 0.112, 0.974, 0.21, 192.0, 0.0, 0.0, 0.0, 0.0, 0.0, 0.0, 0.0, 0.0, 0.0, 1.7184660751393657E9, 0.0, 2024-06-15 10:41:15.139
15.0, -68691.35870830521, -146365.01179516458, 81312.96411907245, -187500.02235174447, 92277.4782511566, -187500.02235174447, -187500.02235174447, -187500.02235174447, 0.112, 0.974, 0.21, 192.0, 0.0, 0.0, 0.0, 0.0, 0.0, 0.0, 0.0, 0.0, 0.0, 1.7184660751393828E9, 0.0, 2024-06-15 10:41:15.139
16.0, -70115.23188534164, -147536.1314459004, 79970.09366394207, -187500.02235174447, 90903.94120263353, -187500.02235174447, -187500.02235174447, -187500.02235174447, 0.112, 0.974, 0.21, 192.0, 0.0, 0.0, 0.0, 0.0, 0.0, 0.0, 0.0, 0.0, 0.0, 1.718466075139422E9, 0.0, 2024-06-15 10:41:15.139
17.0, -73697.0989343046, -151747.15539779133, 76492.72102030767, -187500.02235174447, 88434.118143811, -187500.02235174447, -187500.02235174447, -187500.02235174447, 0.112, 0.974, 0.21, 192.0, 0.0, 0.0, 0.0, 0.0, 0.0, 0.0, 0.0, 0.0, 0.0, 1.718466075139452E9, 0.0, 2024-06-15 10:41:15.139
18.0, -73014.72252782852, -151051.27853766424, 77391.32820264438, -187500.02235174447, 89548.55377060817, -187500.02235174447, -187500.02235174447, -187500.02235174447, 0.1, 0.976, 0.216, 192.0, 3.0, 32.0, 30.0, 128.0, 6.0, 192.0, 0.0, 0.0, 0.0, 1.7184660751395109E9, 0.0, 2024-06-15 10:41:15.139
19.0, -69652.17079546103, -146885.85214446214, 80928.58116967454, -187500.02235174447, 92084.51564127395, -187500.02235174447, -187500.02235174447, -187500.02235174447, 0.1, 0.976, 0.216, 192.0, 0.0, 0.0, 0.0, 0.0, 0.0, 0.0, 0.0, 0.0, 0.0, 1.7184660751395364E9, 0.0, 2024-06-15 10:41:15.139
20.0, -70176.76623782709, -147010.30665758927, 80491.93984174012, -187500.02235174447, 91356.63108308686, -187500.02235174447, -187500.02235174447, -187500.02235174447, 0.1, 0.976, 0.216, 192.0, 0.0, 0.0, 0.0, 0.0, 0.0, 0.0, 0.0, 0.0, 0.0, 1.7184660751395621E9, 0.0, 2024-06-15 10:41:15.139
21.0, -73881.83610222771, -151234.0040485864, 76886.4917023768, -187500.02235174447, 88679.27207699681, -187500.02235174447, -187500.02235174447, -187500.02235174447, 0.1, 0.976, 0.216, 192.0, 0.0, 0.0, 0.0, 0.0, 0.0, 0.0, 0.0, 0.0, 0.0, 1.7184660751395888E9, 0.0, 2024-06-15 10:41:15.139
22.0, -74142.36803559876, -151697.91450475628, 76825.136163847, -187500.02235174447, 89077.15548004574, -187500.02235174447, -187500.02235174447, -187500.02235174447, 0.1, 0.976, 0.216, 192.0, 0.0, 0.0, 0.0, 0.0, 0.0, 0.0, 0.0, 0.0, 0.0, 1.7184660751396174E9, 0.0, 2024-06-15 10:41:15.139
23.0, -70663.63193555259, -147459.53201765203, 80496.99133598701, -187500.02235174447, 91841.3286616002, -187500.02235174447, -187500.02235174447, -187500.02235174447, 0.1, 0.976, 0.216, 192.0, 0.0, 0.0, 0.0, 0.0, 0.0, 0.0, 0.0, 0.0, 0.0, 1.7184660751396651E9, 0.0, 2024-06-15 10:41:15.139
