%OpenBCI Raw EXG Data
%Number of channels = 8
%Sample Rate = 250 Hz
%Board = OpenBCI_GUI$BoardCytonSerial
Sample Index, EXG Channel 0, EXG Channel 1, EXG Channel 2, EXG Channel 3, EXG Channel 4, EXG Channel 5, EXG Channel 6, EXG Channel 7, Accel Channel 0, Accel Channel 1, Accel Channel 2, Other, Other, Other, Other, Other, Other, Other, Analog Channel 0, Analog Channel 1, Analog Channel 2, Timestamp, Other, Timestamp (Formatted)
204.0, 49964.57546527094, -149890.03835797767, -187500.02235174447, -187500.02235174447, 89941.54214162138, -187500.02235174447, -187500.02235174447, -187500.02235174447, 0.16, 0.92, -0.32, 192.0, 5.0, 0.0, 28.0, 192.0, 246.0, 0.0, 0.0, 0.0, 0.0, 1.7184658816183257E9, 0.0, 2024-06-15 10:38:01.618
205.0, 52149.011450888094, -144003.4382347391, -184365.25724712102, -187500.02235174447, 92974.40564327307, -187500.02235174447, -187500.02235174447, -187500.02235174447, 0.16, 0.92, -0.32, 192.0, 0.0, 0.0, 0.0, 0.0, 0.0, 0.0, 0.0, 0.0, 0.0, 1.7184658816183453E9, 0.0, 2024-06-15 10:38:01.618
206.0, 52328.74182805322, -141803.04310358086, -182994.2906492103, -187500.02235174447, 93675.08812845804, -187500.02235174447, -187500.02235174447, -187500.02235174447, 0.16, 0.92, -0.32, 192.0, 0.0, 0.0, 0.0, 0.0, 0.0, 0.0, 0.0, 0.0, 0.0, 1.7184658816183555E9, 0.0, 2024-06-15 10:38:01.618
207.0, 50236.19386389183, -147050.1151144642, -186470.29983643294, -187500.02235174447, 90741.10874427661, -187500.02235174447, -187500.02235174447, -187500.02235174447, 0.16, 0.92, -0.32, 192.0, 0.0, 0.0, 0.0, 0.0, 0.0, 0.0, 0.0, 0.0, 0.0, 1.7184658816183653E9, 0.0, 2024-06-15 10:38:01.618
208.0, 49670.15828730563, -150391.16446866567, -187500.02235174447, -187500.02235174447, 89528.90658723195, -187500.02235174447, -187500.02235174447, -187500.02235174447, 0.16, 0.92, -0.32, 192.0, 0.0, 0.0, 0.0, 0.0, 0.0, 0.0, 0.0, 0.0, 0.0, 1.7184658816183753E9, 0.0, 2024-06-15 10:38:01.618
209.0, 51786.71202501202, -145102.13823343973, -185090.12431980664, -187500.02235174447, 92302.02046656853, -187500.02235174447, -187500.02235174447, -187500.02235174447, 0.16, 0.92, -0.32, 192.0, 0.0, 0.0, 0.0, 0.0, 0.0, 0.0, 0.0, 0.0, 0.0, 1.7184658816183853E9, 0.0, 2024-06-15 10:38:01.618
210.0, 52467.34499542058, -141621.74810430387, -182884.25301125683, -187500.02235174447, 93687.13571871945, -187500.02235174447, -187500.02235174447, -187500.02235174447, 0.16, 0.92, -0.32, 192.0, 0.0, 0.0, 0.0, 0.0, 0.0, 0.0, 0.0, 0.0, 0.0, 1.7184658816183949E9, 0.0, 2024-06-15 10:38:01.618
211.0, 50560.897655594075, -145910.98081004393, -185791.83498523655, -187500.02235174447, 91099.38485615073, -187500.02235174447, -187500.02235174447, -187500.02235174447, 0.16, 0.92, -0.32, 192.0, 0.0, 0.0, 0.0, 0.0, 0.0, 0.0, 0.0, 0.0, 0.0, 1.7184658816184042E9, 0.0, 2024-06-15 10:38:01.618
212.0, 49432.626298979085, -150616.2465353306, -187500.02235174447, -187500.02235174447, 89148.85987625837, -187500.02235174447, -187500.02235174447, -187500.02235174447, 0.16, 0.92, -0.32, 192.0, 0.0, 0.0, 0.0, 0.0, 0.0, 0.0, 0.0, 0.0, 0.0, 1.7184658816184137E9, 0.0, 2024-06-15 10:38:01.618
213.0, 51350.025993588686, -146362.8883794413, -185957.93079828392, -187500.02235174447, 91462.0419099381, -187500.02235174447, -187500.02235174447, -187500.02235174447, 0.16, 0.92, -0.32, 192.0, 0.0, 0.0, 0.0, 0.0, 0.0, 0.0, 0.0, 0.0, 0.0, 1.7184658816184232E9, 0.0, 2024-06-15 10:38:01.618
214.0, 52539.13879861103, -141744.2580156634, -183018.36347798866, -187500.02235174447, 93495.0224751261, -187500.02235174447, -187500.02235174447, -187500.02235174447, 0.16, 0.92, -0.32, 192.0, 0.0, 0.0, 0.0, 0.0, 0.0, 0.0, 0.0, 0.0, 0.0, 1.718465881618432E9, 0.0, 2024-06-15 10:38:01.618
215.0, 50955.04831731896, -144791.6277994666, -185134.93956743952, -187500.02235174447, 91465.14880241737, -187500.02235174447, -187500.02235174447, -187500.02235174447, 0.162, 0.924, -0.318, 192.0, 5.0, 16.0, 28.0, 224.0, 246.0, 16.0, 0.0, 0.0, 0.0, 1.7184658816184416E9, 0.0, 2024-06-15 10:38:01.618
216.0, 49340.31359437866, -150473.1730190722, -187500.02235174447, -187500.02235174447, 88945.43664997061, -187500.02235174447, -187500.02235174447, -187500.02235174447, 0.162, 0.924, -0.318, 192.0, 0.0, 0.0, 0.0, 0.0, 0.0, 0.0, 0.0, 0.0, 0.0, 1.718465881618451E9, 0.0, 2024-06-15 10:38:01.618
217.0, 50877.55481929241, -147663.58109278456, -186861.34360567853, -187500.02235174447, 90609.30050722367, -187500.02235174447, -187500.02235174447, -187500.02235174447, 0.162, 0.924, -0.318, 192.0, 0.0, 0.0, 0.0, 0.0, 0.0, 0.0, 0.0, 0.0, 0.0, 1.718465881618461E9, 0.0, 2024-06-15 10:38:01.618
218.0, 52513.031961087225, -142129.42327611725, -183347.3811563708, -187500.02235174447, 93180.35461668427, -187500.02235174447, -187500.02235174447, -187500.02235174447, 0.162, 0.924, -0.318, 192.0, 0.0, 0.0, 0.0, 0.0, 0.0, 0.0, 0.0, 0.0, 0.0, 1.718465881618471E9, 0.0, 2024-06-15 10:38:01.618
219.0, 51307.33416167905, -143832.3579826782, -184605.24792733765, -187500.02235174447, 91791.6630854205, -187500.02235174447, -187500.02235174447, -187500.02235174447, 0.162, 0.924, -0.318, 192.0, 0.0, 0.0, 0.0, 0.0, 0.0, 0.0, 0.0, 0.0, 0.0, 1.7184658816184807E9, 0.0, 2024-06-15 10:38:01.618
220.0, 49362.017138244766, -150036.35287718213, -187500.02235174447, -187500.02235174447, 88913.76422807745, -187500.02235174447, -187500.02235174447, -187500.02235174447, 0.162, 0.924, -0.318, 192.0, 0.0, 0.0, 0.0, 0.0, 0.0, 0.0, 0.0, 0.0, 0.0, 1.7184658816184914E9, 0.0, 2024-06-15 10:38:01.618
221.0, 50435.817293622174, -148816.5734787671, -187500.02235174447, -187500.02235174447, 89910.38380985068, -187500.02235174447, -187500.02235174447, -187500.02235174447, 0.162, 0.924, -0.318, 192.0, 0.0, 0.0, 0.0, 0.0, 0.0, 0.0, 0.0, 0.0, 0.0, 1.718465881618502E9, 0.0, 2024-06-15 10:38:01.618
222.0, 52412.449111038346, -142694.45302420296, -183771.23728647677, -187500.02235174447, 92840.9657288749, -187500.02235174447, -187500.02235174447, -187500.02235174447, 0.162, 0.924, -0.318, 192.0, 0.0, 0.0, 0.0, 0.0, 0.0, 0.0, 0.0, 0.0, 0.0, 1.7184658816185112E9, 0.0, 2024-06-15 10:38:01.618
223.0, 51700.76956758137, -142906.5263755949, -184033.7361733599, -187500.02235174447, 92232.10420991233, -187500.02235174447, -187500.02235174447, -187500.02235174447, 0.162, 0.924, -0.318, 192.0, 0.0, 0.0, 0.0, 0.0, 0.0, 0.0, 0.0, 0.0, 0.0, 1.7184658816185212E9, 0.0, 2024-06-15 10:38:01.618
224.0, 49524.9390035795, -149225.3198296213, -187500.02235174447, -187500.02235174447, 89157.95703625167, -187500.02235174447, -187500.02235174447, -187500.02235174447, 0.162, 0.924, -0.318, 192.0, 0.0, 0.0, 0.0, 0.0, 0.0, 0.0, 0.0, 0.0, 0.0, 1.7184658816185308E9, 0.0, 2024-06-15 10:38:01.618
225.0, 49999.89122151032, -149821.95494436682, -187500.02235174447, -187500.02235174447, 89345.01878559813, -187500.02235174447, -187500.02235174447, -187500.02235174447, 0.158, 0.918, -0.318, 192.0, 4.0, 240.0, 28.0, 176.0, 246.0, 16.0, 0.0, 0.0, 0.0, 1.71846588161854E9, 0.0, 2024-06-15 10:38:01.618
226.0, 52193.51377409861, -143540.86888323652, -184347.37585155678, -187500.02235174447, 92422.1163895269, -187500.02235174447, -187500.02235174447, -187500.02235174447, 0.158, 0.918, -0.318, 192.0, 0.0, 0.0, 0.0, 0.0, 0.0, 0.0, 0.0, 0.0, 0.0, 1.718465881618556E9, 0.0, 2024-06-15 10:38:01.618
227.0, 52010.52004224301, -142272.96617900924, -183635.53984588862, -187500.02235174447, 92598.94103991282, -187500.02235174447, -187500.02235174447, -187500.02235174447, 0.158, 0.918, -0.318, 192.0, 0.0, 0.0, 0.0, 0.0, 0.0, 0.0, 0.0, 0.0, 0.0, 1.718465881618566E9, 0.0, 2024-06-15 10:38:01.618
228.0, 49804.58167845985, -148205.05210221437, -187388.8224230793, -187500.02235174447, 89584.94241058141, -187500.02235174447, -187500.02235174447, -187500.02235174447, 0.158, 0.918, -0.318, 192.0, 0.0, 0.0, 0.0, 0.0, 0.0, 0.0, 0.0, 0.0, 0.0, 1.7184658816185756E9, 0.0, 2024-06-15 10:38:01.618
229.0, 49665.66558667011, -150553.16991247772, -187500.02235174447, -187500.02235174447, 88973.17516483965, -187500.02235174447, -187500.02235174447, -187500.02235174447, 0.158, 0.918, -0.318, 192.0, 0.0, 0.0, 0.0, 0.0, 0.0, 0.0, 0.0, 0.0, 0.0, 1.718465881618585E9, 0.0, 2024-06-15 10:38:01.618
230.0, 51920.7554365105, -144564.8246484786, -185011.89321421305, -187500.02235174447, 91963.34683458172, -187500.02235174447, -187500.02235174447, -187500.02235174447, 0.158, 0.918, -0.318, 192.0, 0.0, 0.0, 0.0, 0.0, 0.0, 0.0, 0.0, 0.0, 0.0, 1.718465881618595E9, 0.0, 2024-06-15 10:38:01.618
231.0, 52266.894551145386, -141860.35297636426, -183366.64836009126, -187500.02235174447, 92910.2784884308, -187500.02235174447, -187500.02235174447, -187500.02235174447, 0.158, 0.918, -0.318, 192.0, 0.0, 0.0, 0.0, 0.0, 0.0, 0.0, 0.0, 0.0, 0.0, 1.7184658816186047E9, 0.0, 2024-06-15 10:38:01.618
232.0, 50151.97249078423, -147037.6428410581, -186697.03593218757, -187500.02235174447, 90134.43769627067, -187500.02235174447, -187500.02235174447, -187500.02235174447, 0.158, 0.918, -0.318, 192.0, 0.0, 0.0, 0.0, 0.0, 0.0, 0.0, 0.0, 0.0, 0.0, 1.7184658816186173E9, 0.0, 2024-06-15 10:38:01.618
233.0, 49378.04333901923, -151028.7032757644, -187500.02235174447, -187500.02235174447, 88725.80840895277, -187500.02235174447, -187500.02235174447, -187500.02235174447, 0.158, 0.918, -0.318, 192.0, 0.0, 0.0, 0.0, 0.0, 0.0, 0.0, 0.0, 0.0, 0.0, 1.7184658816186268E9, 0.0, 2024-06-15 10:38:01.618
234.0, 51547.83893201816, -145772.08706999864, -185786.51527005617, -187500.02235174447, 91430.4812467672, -187500.02235174447, -187500.02235174447, -187500.02235174447, 0.158, 0.918, -0.318, 192.0, 0.0, 0.0, 0.0, 0.0, 0.0, 0.0, 0.0, 0.0, 0.0, 1.7184658816186366E9, 0.0, 2024-06-15 10:38:01.618
235.0, 52446.535521332684, -141698.21342208548, -183245.85953305478, -187500.02235174447, 93124.45290380156, -187500.02235174447, -187500.02235174447, -187500.02235174447, 0.158, 0.914, -0.32, 192.0, 4.0, 240.0, 28.0, 144.0, 246.0, 0.0, 0.0, 0.0, 0.0, 1.718465881618646E9, 0.0, 2024-06-15 10:38:01.618
236.0, 50569.123097553624, -145778.32320670167, -185915.26131811875, -187500.02235174447, 90773.25055280335, -187500.02235174447, -187500.02235174447, -187500.02235174447, 0.158, 0.914, -0.32, 192.0, 0.0, 0.0, 0.0, 0.0, 0.0, 0.0, 0.0, 0.0, 0.0, 1.7184658816186557E9, 0.0, 2024-06-15 10:38:01.618
237.0, 49248.44792466735, -151037.73338052433, -187500.02235174447, -187500.02235174447, 88718.9911268939, -187500.02235174447, -187500.02235174447, -187500.02235174447, 0.158, 0.914, -0.32, 192.0, 0.0, 0.0, 0.0, 0.0, 0.0, 0.0, 0.0, 0.0, 0.0, 1.7184658816186652E9, 0.0, 2024-06-15 10:38:01.618
238.0, 51142.2218253877, -146984.9374276325, -186505.83911011685, -187500.02235174447, 90918.91687141858, -187500.02235174447, -187500.02235174447, -187500.02235174447, 0.158, 0.914, -0.32, 192.0, 0.0, 0.0, 0.0, 0.0, 0.0, 0.0, 0.0, 0.0, 0.0, 1.7184658816186757E9, 0.0, 2024-06-15 10:38:01.618
239.0, 52539.71994396686, -141779.6184753917, -183262.46687918509, -187500.02235174447, 93228.20970156309, -187500.02235174447, -187500.02235174447, -187500.02235174447, 0.158, 0.914, -0.32, 192.0, 0.0, 0.0, 0.0, 0.0, 0.0, 0.0, 0.0, 0.0, 0.0, 1.7184658816186888E9, 0.0, 2024-06-15 10:38:01.618
240.0, 51012.58170754692, -144544.86454068002, -185127.8540644472, -187500.02235174447, 91440.80775270556, -187500.02235174447, -187500.02235174447, -187500.02235174447, 0.158, 0.914, -0.32, 192.0, 0.0, 0.0, 0.0, 0.0, 0.0, 0.0, 0.0, 0.0, 0.0, 1.7184658816187034E9, 0.0, 2024-06-15 10:38:01.618
241.0, 49232.891110526456, -150699.64089389335, -187500.02235174447, -187500.02235174447, 88868.32313159981, -187500.02235174447, -187500.02235174447, -187500.02235174447, 0.158, 0.914, -0.32, 192.0, 0.0, 0.0, 0.0, 0.0, 0.0, 0.0, 0.0, 0.0, 0.0, 1.7184658816187208E9, 0.0, 2024-06-15 10:38:01.618
242.0, 50733.54252976686, -148149.9103486431, -187158.84532437866, -187500.02235174447, 90459.76733681766, -187500.02235174447, -187500.02235174447, -187500.02235174447, 0.158, 0.914, -0.32, 192.0, 0.0, 0.0, 0.0, 0.0, 0.0, 0.0, 0.0, 0.0, 0.0, 1.7184658816187403E9, 0.0, 2024-06-15 10:38:01.618
243.0, 52545.17376961396, -142103.07056940443, -183414.7046106702, -187500.02235174447, 93225.28162303945, -187500.02235174447, -187500.02235174447, -187500.02235174447, 0.158, 0.914, -0.32, 192.0, 0.0, 0.0, 0.0, 0.0, 0.0, 0.0, 0.0, 0.0, 0.0, 1.718465881618757E9, 0.0, 2024-06-15 10:38:01.618
244.0, 51458.65547164148, -143408.345390361, -184362.55268604192, -187500.02235174447, 92111.85182474279, -187500.02235174447, -187500.02235174447, -187500.02235174447, 0.158, 0.914, -0.32, 192.0, 0.0, 0.0, 0.0, 0.0, 0.0, 0.0, 0.0, 0.0, 0.0, 1.7184658816187687E9, 0.0, 2024-06-15 10:38:01.618
245.0, 49369.05793774819, -149941.17914929142, -187500.02235174447, -187500.02235174447, 89228.47679000816, -187500.02235174447, -187500.02235174447, -187500.02235174447, 0.156, 0.922, -0.32, 192.0, 4.0, 224.0, 28.0, 208.0, 246.0, 0.0, 0.0, 0.0, 0.0, 1.7184658816187792E9, 0.0, 2024-06-15 10:38:01.618
246.0, 50308.88173686049, -149210.90295444764, -187500.02235174447, -187500.02235174447, 90029.89858745321, -187500.02235174447, -187500.02235174447, -187500.02235174447, 0.156, 0.922, -0.32, 192.0, 0.0, 0.0, 0.0, 0.0, 0.0, 0.0, 0.0, 0.0, 0.0, 1.7184658816187892E9, 0.0, 2024-06-15 10:38:01.618
247.0, 52446.71433528833, -142707.81936738722, -183752.50652462323, -187500.02235174447, 93054.87192331218, -187500.02235174447, -187500.02235174447, -187500.02235174447, 0.156, 0.922, -0.32, 192.0, 0.0, 0.0, 0.0, 0.0, 0.0, 0.0, 0.0, 0.0, 0.0, 1.7184658816188056E9, 0.0, 2024-06-15 10:38:01.618
248.0, 51860.361022992256, -142456.4740009873, -183704.13734962195, -187500.02235174447, 92694.8300236261, -187500.02235174447, -187500.02235174447, -187500.02235174447, 0.156, 0.922, -0.32, 192.0, 0.0, 0.0, 0.0, 0.0, 0.0, 0.0, 0.0, 0.0, 0.0, 1.7184658816188169E9, 0.0, 2024-06-15 10:38:01.618
249.0, 49584.99814093091, -148952.11445714408, -187500.02235174447, -187500.02235174447, 89651.57296080267, -187500.02235174447, -187500.02235174447, -187500.02235174447, 0.156, 0.922, -0.32, 192.0, 0.0, 0.0, 0.0, 0.0, 0.0, 0.0, 0.0, 0.0, 0.0, 1.7184658816188276E9, 0.0, 2024-06-15 10:38:01.618
250.0, 49890.56883937941, -150129.00085794937, -187500.02235174447, -187500.02235174447, 89601.72857066734, -187500.02235174447, -187500.02235174447, -187500.02235174447, 0.156, 0.922, -0.32, 192.0, 0.0, 0.0, 0.0, 0.0, 0.0, 0.0, 0.0, 0.0, 0.0, 1.7184658816188388E9, 0.0, 2024-06-15 10:38:01.618
251.0, 52222.90631805734, -143587.36051170356, -184280.16415597967, -187500.02235174447, 92684.54822117665, -187500.02235174447, -187500.02235174447, -187500.02235174447, 0.156, 0.922, -0.32, 192.0, 0.0, 0.0, 0.0, 0.0, 0.0, 0.0, 0.0, 0.0, 0.0, 1.7184658816188507E9, 0.0, 2024-06-15 10:38:01.618
252.0, 52192.70911129822, -141790.97316157498, -183251.5592278909, -187500.02235174447, 93093.13810981967, -187500.02235174447, -187500.02235174447, -187500.02235174447, 0.156, 0.922, -0.32, 192.0, 0.0, 0.0, 0.0, 0.0, 0.0, 0.0, 0.0, 0.0, 0.0, 1.7184658816188607E9, 0.0, 2024-06-15 10:38:01.618
253.0, 49915.423979213716, -147772.99288189327, -186943.26274910723, -187500.02235174447, 90118.74677166305, -187500.02235174447, -187500.02235174447, -187500.02235174447, 0.156, 0.922, -0.32, 192.0, 0.0, 0.0, 0.0, 0.0, 0.0, 0.0, 0.0, 0.0, 0.0, 1.7184658816188707E9, 0.0, 2024-06-15 10:38:01.618
254.0, 49559.025413873846, -150781.3365198775, -187500.02235174447, -187500.02235174447, 89225.39224927334, -187500.02235174447, -187500.02235174447, -187500.02235174447, 0.156, 0.922, -0.32, 192.0, 0.0, 0.0, 0.0, 0.0, 0.0, 0.0, 0.0, 0.0, 0.0, 1.7184658816188807E9, 0.0, 2024-06-15 10:38:01.618
255.0, 51891.42994778514, -144716.28006890777, -184992.0672168812, -187500.02235174447, 92122.53595859242, -187500.02235174447, -187500.02235174447, -187500.02235174447, 0.156, 0.922, -0.32, 192.0, 0.0, 0.0, 0.0, 0.0, 0.0, 0.0, 0.0, 0.0, 0.0, 1.7184658816188912E9, 0.0, 2024-06-15 10:38:01.618
0.0, 52419.93694543087, -141438.39674453696, -183022.83382687974, -187500.02235174447, 93292.89565001676, -187500.02235174447, -187500.02235174447, -187500.02235174447, 0.15, 0.92, -0.322, 192.0, 4.0, 176.0, 28.0, 192.0, 245.0, 240.0, 0.0, 0.0, 0.0, 1.7184658816189013E9, 0.0, 2024-06-15 10:38:01.618
1.0, 50294.08488203107, -146500.1280903969, -186204.13526345912, -187500.02235174447, 90606.61829788904, -187500.02235174447, -187500.02235174447, -187500.02235174447, 0.15, 0.92, -0.322, 192.0, 0.0, 0.0, 0.0, 0.0, 0.0, 0.0, 0.0, 0.0, 0.0, 1.7184658816189115E9, 0.0, 2024-06-15 10:38:01.618
2.0, 49318.118312134546, -151072.98208153035, -187500.02235174447, -187500.02235174447, 88979.9477434096, -187500.02235174447, -187500.02235174447, -187500.02235174447, 0.15, 0.92, -0.322, 192.0, 0.0, 0.0, 0.0, 0.0, 0.0, 0.0, 0.0, 0.0, 0.0, 1.7184658816189222E9, 0.0, 2024-06-15 10:38:01.618
3.0, 51480.113146318574, -145947.3470982727, -185752.2947492951, -187500.02235174447, 91499.52578538965, -187500.02235174447, -187500.02235174447, -187500.02235174447, 0.15, 0.92, -0.322, 192.0, 0.0, 0.0, 0.0, 0.0, 0.0, 0.0, 0.0, 0.0, 0.0, 1.7184658816189315E9, 0.0, 2024-06-15 10:38:01.618
4.0, 52554.78501972974, -141366.98292100226, -182986.26637295086, -187500.02235174447, 93334.58165342589, -187500.02235174447, -187500.02235174447, -187500.02235174447, 0.15, 0.92, -0.322, 192.0, 0.0, 0.0, 0.0, 0.0, 0.0, 0.0, 0.0, 0.0, 0.0, 1.7184658816189415E9, 0.0, 2024-06-15 10:38:01.618
5.0, 50717.80690167033, -145226.03395295548, -185471.26626625852, -187500.02235174447, 91102.82702479685, -187500.02235174447, -187500.02235174447, -187500.02235174447, 0.15, 0.92, -0.322, 192.0, 0.0, 0.0, 0.0, 0.0, 0.0, 0.0, 0.0, 0.0, 0.0, 1.7184658816189528E9, 0.0, 2024-06-15 10:38:01.618
6.0, 49187.53942102664, -151023.0482844172, -187500.02235174447, -187500.02235174447, 88845.30083481084, -187500.02235174447, -187500.02235174447, -187500.02235174447, 0.15, 0.92, -0.322, 192.0, 0.0, 0.0, 0.0, 0.0, 0.0, 0.0, 0.0, 0.0, 0.0, 1.718465881618964E9, 0.0, 2024-06-15 10:38:01.618
7.0, 51024.584594319414, -147265.1612478687, -186565.6970817682, -187500.02235174447, 90812.6343265336, -187500.02235174447, -187500.02235174447, -187500.02235174447, 0.15, 0.92, -0.322, 192.0, 0.0, 0.0, 0.0, 0.0, 0.0, 0.0, 0.0, 0.0, 0.0, 1.7184658816189744E9, 0.0, 2024-06-15 10:38:01.618
8.0, 52601.611924363606, -141574.7647374588, -183131.35154621024, -187500.02235174447, 93228.07559109636, -187500.02235174447, -187500.02235174447, -187500.02235174447, 0.15, 0.92, -0.322, 192.0, 0.0, 0.0, 0.0, 0.0, 0.0, 0.0, 0.0, 0.0, 0.0, 1.7184658816189847E9, 0.0, 2024-06-15 10:38:01.618
9.0, 51150.35786036943, -144024.31476406037, -184769.53324908417, -187500.02235174447, 91594.23012664678, -187500.02235174447, -187500.02235174447, -187500.02235174447, 0.15, 0.92, -0.322, 192.0, 0.0, 0.0, 0.0, 0.0, 0.0, 0.0, 0.0, 0.0, 0.0, 1.7184658816189947E9, 0.0, 2024-06-15 10:38:01.618
10.0, 49202.5150898117, -150569.26316848554, -187500.02235174447, -187500.02235174447, 88907.05870474085, -187500.02235174447, -187500.02235174447, -187500.02235174447, 0.158, 0.918, -0.316, 192.0, 4.0, 240.0, 28.0, 176.0, 246.0, 32.0, 0.0, 0.0, 0.0, 1.7184658816190052E9, 0.0, 2024-06-15 10:38:01.619
11.0, 50565.81503937424, -148492.27201846507, -187277.68954964753, -187500.02235174447, 90208.71254309567, -187500.02235174447, -187500.02235174447, -187500.02235174447, 0.158, 0.918, -0.316, 192.0, 0.0, 0.0, 0.0, 0.0, 0.0, 0.0, 0.0, 0.0, 0.0, 1.7184658816190157E9, 0.0, 2024-06-15 10:38:01.619
12.0, 52541.30691782319, -142049.56049317843, -183434.10592485737, -187500.02235174447, 93023.11009444119, -187500.02235174447, -187500.02235174447, -187500.02235174447, 0.158, 0.918, -0.316, 192.0, 0.0, 0.0, 0.0, 0.0, 0.0, 0.0, 0.0, 0.0, 0.0, 1.7184658816190283E9, 0.0, 2024-06-15 10:38:01.619
13.0, 51561.24997869134, -142944.27847197992, -184116.10235167772, -187500.02235174447, 92105.52628106193, -187500.02235174447, -187500.02235174447, -187500.02235174447, 0.158, 0.918, -0.316, 192.0, 0.0, 0.0, 0.0, 0.0, 0.0, 0.0, 0.0, 0.0, 0.0, 1.7184658816190386E9, 0.0, 2024-06-15 10:38:01.619
14.0, 49313.44679754339, -149795.82575509857, -187500.02235174447, -187500.02235174447, 89141.52850407702, -187500.02235174447, -187500.02235174447, -187500.02235174447, 0.158, 0.918, -0.316, 192.0, 0.0, 0.0, 0.0, 0.0, 0.0, 0.0, 0.0, 0.0, 0.0, 1.718465881619048E9, 0.0, 2024-06-15 10:38:01.619
15.0, 50092.00276041064, -149602.9078487048, -187500.02235174447, -187500.02235174447, 89686.48638564187, -187500.02235174447, -187500.02235174447, -187500.02235174447, 0.158, 0.918, -0.316, 192.0, 0.0, 0.0, 0.0, 0.0, 0.0, 0.0, 0.0, 0.0, 0.0, 1.718465881619058E9, 0.0, 2024-06-15 10:38:01.619
16.0, 52359.76604935718, -142770.02427220636, -183885.7452733213, -187500.02235174447, 92717.15941633694, -187500.02235174447, -187500.02235174447, -187500.02235174447, 0.158, 0.918, -0.316, 192.0, 0.0, 0.0, 0.0, 0.0, 0.0, 0.0, 0.0, 0.0, 0.0, 1.7184658816190684E9, 0.0, 2024-06-15 10:38:01.619
17.0, 51910.965372439074, -142053.65086241375, -183568.77518520062, -187500.02235174447, 92562.3512342395, -187500.02235174447, -187500.02235174447, -187500.02235174447, 0.158, 0.918, -0.316, 192.0, 0.0, 0.0, 0.0, 0.0, 0.0, 0.0, 0.0, 0.0, 0.0, 1.718465881619079E9, 0.0, 2024-06-15 10:38:01.619
18.0, 49298.739349691794, -149397.69648286063, -187500.02235174447, -187500.02235174447, 89620.36992554307, -187500.02235174447, -187500.02235174447, -187500.02235174447, 0.158, 0.918, -0.316, 192.0, 0.0, 0.0, 0.0, 0.0, 0.0, 0.0, 0.0, 0.0, 0.0, 1.7184658816190891E9, 0.0, 2024-06-15 10:38:01.619
19.0, 48929.73440047913, -153153.41540019697, -187500.02235174447, -187500.02235174447, 89420.03123999014, -187500.02235174447, -187500.02235174447, -187500.02235174447, 0.158, 0.918, -0.316, 192.0, 0.0, 0.0, 0.0, 0.0, 0.0, 0.0, 0.0, 0.0, 0.0, 1.718465881619099E9, 0.0, 2024-06-15 10:38:01.619
20.0, 53116.30554393597, -141132.28960422156, -184365.14548839873, -187500.02235174447, 91882.52292663133, -187500.02235174447, -187500.02235174447, -187500.02235174447, 0.158, 0.924, -0.322, 192.0, 4.0, 240.0, 28.0, 224.0, 245.0, 240.0, 0.0, 0.0, 0.0, 1.718465881619109E9, 0.0, 2024-06-15 10:38:01.619
21.0, 53627.28877392874, -136012.44372277783, -182392.4028745178, -187500.02235174447, 92578.01980710267, -187500.02235174447, -187500.02235174447, -187500.02235174447, 0.158, 0.924, -0.322, 192.0, 0.0, 0.0, 0.0, 0.0, 0.0, 0.0, 0.0, 0.0, 0.0, 1.7184658816191185E9, 0.0, 2024-06-15 10:38:01.619
22.0, 49303.32145730513, -147642.1457698519, -186447.36694662177, -187500.02235174447, 90383.52553648062, -187500.02235174447, -187500.02235174447, -187500.02235174447, 0.158, 0.924, -0.322, 192.0, 0.0, 0.0, 0.0, 0.0, 0.0, 0.0, 0.0, 0.0, 0.0, 1.7184658816191285E9, 0.0, 2024-06-15 10:38:01.619
23.0, 47807.229793933606, -155832.4284353767, -187500.02235174447, -187500.02235174447, 89348.32684377753, -187500.02235174447, -187500.02235174447, -187500.02235174447, 0.158, 0.924, -0.322, 192.0, 0.0, 0.0, 0.0, 0.0, 0.0, 0.0, 0.0, 0.0, 0.0, 1.7184658816191387E9, 0.0, 2024-06-15 10:38:01.619
24.0, 52305.898345219895, -143796.8410607387, -185324.12473250923, -187500.02235174447, 91401.1781097863, -187500.02235174447, -187500.02235174447, -187500.02235174447, 0.158, 0.924, -0.322, 192.0, 0.0, 0.0, 0.0, 0.0, 0.0, 0.0, 0.0, 0.0, 0.0, 1.71846588161915E9, 0.0, 2024-06-15 10:38:01.619
25.0, 53885.87610553219, -135730.43176298522, -182292.9823151806, -187500.02235174447, 92683.40828220944, -187500.02235174447, -187500.02235174447, -187500.02235174447, 0.158, 0.924, -0.322, 192.0, 0.0, 0.0, 0.0, 0.0, 0.0, 0.0, 0.0, 0.0, 0.0, 1.71846588161916E9, 0.0, 2024-06-15 10:38:01.619
26.0, 50120.09890319096, -144863.3992509126, -185520.7306767381, -187500.02235174447, 90786.05810237624, -187500.02235174447, -187500.02235174447, -187500.02235174447, 0.158, 0.924, -0.322, 192.0, 0.0, 0.0, 0.0, 0.0, 0.0, 0.0, 0.0, 0.0, 0.0, 1.7184658816191697E9, 0.0, 2024-06-15 10:38:01.619
27.0, 47477.13923181764, -155920.47195678618, -187500.02235174447, -187500.02235174447, 89301.16466297682, -187500.02235174447, -187500.02235174447, -187500.02235174447, 0.158, 0.924, -0.322, 192.0, 0.0, 0.0, 0.0, 0.0, 0.0, 0.0, 0.0, 0.0, 0.0, 1.7184658816191792E9, 0.0, 2024-06-15 10:38:01.619
28.0, 51433.37564866253, -146489.73452922518, -186237.461714442, -187500.02235174447, 90955.12669743618, -187500.02235174447, -187500.02235174447, -187500.02235174447, 0.158, 0.924, -0.322, 192.0, 0.0, 0.0, 0.0, 0.0, 0.0, 0.0, 0.0, 0.0, 0.0, 1.7184658816191883E9, 0.0, 2024-06-15 10:38:01.619
29.0, 54006.55317384639, -136000.9549261278, -182364.0832142929, -187500.02235174447, 92726.34598330809, -187500.02235174447, -187500.02235174447, -187500.02235174447, 0.158, 0.924, -0.322, 192.0, 0.0, 0.0, 0.0, 0.0, 0.0, 0.0, 0.0, 0.0, 0.0, 1.718465881619198E9, 0.0, 2024-06-15 10:38:01.619
30.0, 50989.157079357756, -142247.21696939672, -184612.24402335216, -187500.02235174447, 91231.61777634833, -187500.02235174447, -187500.02235174447, -187500.02235174447, 0.152, 0.922, -0.32, 192.0, 4.0, 192.0, 28.0, 208.0, 246.0, 0.0, 0.0, 0.0, 0.0, 1.7184658816192071E9, 0.0, 2024-06-15 10:38:01.619
31.0, 47424.32205966974, -155263.68829771143, -187500.02235174447, -187500.02235174447, 89314.03926778308, -187500.02235174447, -187500.02235174447, -187500.02235174447, 0.152, 0.922, -0.32, 192.0, 0.0, 0.0, 0.0, 0.0, 0.0, 0.0, 0.0, 0.0, 0.0, 1.718465881619217E9, 0.0, 2024-06-15 10:38:01.619
32.0, 50540.51286465083, -149159.47159045597, -187139.8239898472, -187500.02235174447, 90491.81973836658, -187500.02235174447, -187500.02235174447, -187500.02235174447, 0.152, 0.922, -0.32, 192.0, 0.0, 0.0, 0.0, 0.0, 0.0, 0.0, 0.0, 0.0, 0.0, 1.7184658816192265E9, 0.0, 2024-06-15 10:38:01.619
33.0, 53978.993472933, -136782.52837449653, -182672.02319765367, -187500.02235174447, 92602.38320855895, -187500.02235174447, -187500.02235174447, -187500.02235174447, 0.152, 0.922, -0.32, 192.0, 0.0, 0.0, 0.0, 0.0, 0.0, 0.0, 0.0, 0.0, 0.0, 1.7184658816192389E9, 0.0, 2024-06-15 10:38:01.619
34.0, 51831.6837348561, -139961.6393401193, -183820.85815916755, -187500.02235174447, 91619.64406009247, -187500.02235174447, -187500.02235174447, -187500.02235174447, 0.152, 0.922, -0.32, 192.0, 0.0, 0.0, 0.0, 0.0, 0.0, 0.0, 0.0, 0.0, 0.0, 1.718465881619262E9, 0.0, 2024-06-15 10:38:01.619
35.0, 47644.24087336551, -153878.61774904942, -187500.02235174447, -187500.02235174447, 89385.87777446244, -187500.02235174447, -187500.02235174447, -187500.02235174447, 0.152, 0.922, -0.32, 192.0, 0.0, 0.0, 0.0, 0.0, 0.0, 0.0, 0.0, 0.0, 0.0, 1.7184658816192727E9, 0.0, 2024-06-15 10:38:01.619
36.0, 49649.415868451106, -151633.36266676936, -187500.02235174447, -187500.02235174447, 90010.98901164401, -187500.02235174447, -187500.02235174447, -187500.02235174447, 0.152, 0.922, -0.32, 192.0, 0.0, 0.0, 0.0, 0.0, 0.0, 0.0, 0.0, 0.0, 0.0, 1.7184658816192825E9, 0.0, 2024-06-15 10:38:01.619
37.0, 53761.823923805234, -138093.56994552255, -183205.0899511683, -187500.02235174447, 92343.05826938848, -187500.02235174447, -187500.02235174447, -187500.02235174447, 0.152, 0.922, -0.32, 192.0, 0.0, 0.0, 0.0, 0.0, 0.0, 0.0, 0.0, 0.0, 0.0, 1.7184658816192925E9, 0.0, 2024-06-15 10:38:01.619
38.0, 52561.93757795544, -138131.74672505222, -183200.6419540217, -187500.02235174447, 91943.83376167224, -187500.02235174447, -187500.02235174447, -187500.02235174447, 0.152, 0.922, -0.32, 192.0, 0.0, 0.0, 0.0, 0.0, 0.0, 0.0, 0.0, 0.0, 0.0, 1.7184658816193023E9, 0.0, 2024-06-15 10:38:01.619
39.0, 48105.51382368968, -151875.83439062053, -187500.02235174447, -187500.02235174447, 89612.12213183906, -187500.02235174447, -187500.02235174447, -187500.02235174447, 0.152, 0.922, -0.32, 192.0, 0.0, 0.0, 0.0, 0.0, 0.0, 0.0, 0.0, 0.0, 0.0, 1.718465881619312E9, 0.0, 2024-06-15 10:38:01.619
40.0, 48854.78900132048, -153656.9778510306, -187500.02235174447, -187500.02235174447, 89633.31158558269, -187500.02235174447, -187500.02235174447, -187500.02235174447, 0.152, 0.922, -0.32, 192.0, 0.0, 0.0, 0.0, 0.0, 0.0, 0.0, 0.0, 0.0, 0.0, 1.718465881619321E9, 0.0, 2024-06-15 10:38:01.619
41.0, 53364.18638994532, -139902.027237657, -183901.54795665122, -187500.02235174447, 91990.41479711709, -187500.02235174447, -187500.02235174447, -187500.02235174447, 0.154, 0.924, -0.312, 192.0, 4.0, 208.0, 28.0, 224.0, 246.0, 64.0, 0.0, 0.0, 0.0, 1.7184658816193306E9, 0.0, 2024-06-15 10:38:01.619
42.0, 53191.34035007243, -136787.26694432105, -182734.8315995731, -187500.02235174447, 92199.80593917442, -187500.02235174447, -187500.02235174447, -187500.02235174447, 0.154, 0.924, -0.312, 192.0, 0.0, 0.0, 0.0, 0.0, 0.0, 0.0, 0.0, 0.0, 0.0, 1.7184658816193404E9, 0.0, 2024-06-15 10:38:01.619
43.0, 48741.845636587816, -149490.41151886125, -187192.439996295, -187500.02235174447, 89869.10013784173, -187500.02235174447, -187500.02235174447, -187500.02235174447, 0.154, 0.924, -0.312, 192.0, 0.0, 0.0, 0.0, 0.0, 0.0, 0.0, 0.0, 0.0, 0.0, 1.718465881619351E9, 0.0, 2024-06-15 10:38:01.619
44.0, 48158.53216153767, -155201.41633765894, -187500.02235174447, -187500.02235174447, 89263.85960148092, -187500.02235174447, -187500.02235174447, -187500.02235174447, 0.154, 0.924, -0.312, 192.0, 0.0, 0.0, 0.0, 0.0, 0.0, 0.0, 0.0, 0.0, 0.0, 1.7184658816193607E9, 0.0, 2024-06-15 10:38:01.619
45.0, 52796.13915635814, -142136.17350294275, -184770.2708566512, -187500.02235174447, 91524.4479804573, -187500.02235174447, -187500.02235174447, -187500.02235174447, 0.154, 0.924, -0.312, 192.0, 0.0, 0.0, 0.0, 0.0, 0.0, 0.0, 0.0, 0.0, 0.0, 1.71846588161937E9, 0.0, 2024-06-15 10:38:01.619
46.0, 53681.849382144144, -135950.61879761444, -182443.7671832761, -187500.02235174447, 92378.39637737232, -187500.02235174447, -187500.02235174447, -187500.02235174447, 0.154, 0.924, -0.312, 192.0, 0.0, 0.0, 0.0, 0.0, 0.0, 0.0, 0.0, 0.0, 0.0, 1.7184658816193848E9, 0.0, 2024-06-15 10:38:01.619
47.0, 49525.3413349797, -146841.43922822943, -186336.971680757, -187500.02235174447, 90190.62998183131, -187500.02235174447, -187500.02235174447, -187500.02235174447, 0.154, 0.924, -0.312, 192.0, 0.0, 0.0, 0.0, 0.0, 0.0, 0.0, 0.0, 0.0, 0.0, 1.718465881619394E9, 0.0, 2024-06-15 10:38:01.619
48.0, 47674.79570803591, -156013.70108290925, -187500.02235174447, -187500.02235174447, 89001.18190064216, -187500.02235174447, -187500.02235174447, -187500.02235174447, 0.154, 0.924, -0.312, 192.0, 0.0, 0.0, 0.0, 0.0, 0.0, 0.0, 0.0, 0.0, 0.0, 1.7184658816194036E9, 0.0, 2024-06-15 10:38:01.619
49.0, 52079.63163609882, -144665.56396073865, -185755.53575224112, -187500.02235174447, 90968.53774410937, -187500.02235174447, -187500.02235174447, -187500.02235174447, 0.154, 0.924, -0.312, 192.0, 0.0, 0.0, 0.0, 0.0, 0.0, 0.0, 0.0, 0.0, 0.0, 1.718465881619413E9, 0.0, 2024-06-15 10:38:01.619
50.0, 53994.5949905628, -135752.4929347626, -182475.6184191249, -187500.02235174447, 92347.1486386238, -187500.02235174447, -187500.02235174447, -187500.02235174447, 0.154, 0.924, -0.312, 192.0, 0.0, 0.0, 0.0, 0.0, 0.0, 0.0, 0.0, 0.0, 0.0, 1.7184658816194224E9, 0.0, 2024-06-15 10:38:01.619
51.0, 50393.93012451293, -144160.5709982599, -185502.96103989615, -187500.02235174447, 90506.14720656243, -187500.02235174447, -187500.02235174447, -187500.02235174447, 0.158, 0.926, -0.318, 192.0, 4.0, 240.0, 28.0, 240.0, 246.0, 16.0, 0.0, 0.0, 0.0, 1.7184658816194322E9, 0.0, 2024-06-15 10:38:01.619
52.0, 47422.64567883559, -155974.13849522336, -187500.02235174447, -187500.02235174447, 88834.25907304992, -187500.02235174447, -187500.02235174447, -187500.02235174447, 0.158, 0.926, -0.318, 192.0, 0.0, 0.0, 0.0, 0.0, 0.0, 0.0, 0.0, 0.0, 0.0, 1.7184658816194415E9, 0.0, 2024-06-15 10:38:01.619
53.0, 51231.248823553186, -147342.31946972842, -186784.90063964136, -187500.02235174447, 90388.95701038325, -187500.02235174447, -187500.02235174447, -187500.02235174447, 0.158, 0.926, -0.318, 192.0, 0.0, 0.0, 0.0, 0.0, 0.0, 0.0, 0.0, 0.0, 0.0, 1.718465881619451E9, 0.0, 2024-06-15 10:38:01.619
54.0, 54123.02811420299, -136012.08609486654, -182676.35943607803, -187500.02235174447, 92246.90106474175, -187500.02235174447, -187500.02235174447, -187500.02235174447, 0.158, 0.926, -0.318, 192.0, 0.0, 0.0, 0.0, 0.0, 0.0, 0.0, 0.0, 0.0, 0.0, 1.7184658816194608E9, 0.0, 2024-06-15 10:38:01.619
55.0, 51243.16230334787, -141639.00365102335, -184703.3050302631, -187500.02235174447, 90863.10456551368, -187500.02235174447, -187500.02235174447, -187500.02235174447, 0.158, 0.926, -0.318, 192.0, 0.0, 0.0, 0.0, 0.0, 0.0, 0.0, 0.0, 0.0, 0.0, 1.7184658816194737E9, 0.0, 2024-06-15 10:38:01.619
56.0, 47448.528998914844, -155120.99476110874, -187500.02235174447, -187500.02235174447, 88836.15897132862, -187500.02235174447, -187500.02235174447, -187500.02235174447, 0.158, 0.926, -0.318, 192.0, 0.0, 0.0, 0.0, 0.0, 0.0, 0.0, 0.0, 0.0, 0.0, 1.7184658816194837E9, 0.0, 2024-06-15 10:38:01.619
57.0, 50326.15963532444, -150000.36656860908, -187500.02235174447, -187500.02235174447, 89893.82116720929, -187500.02235174447, -187500.02235174447, -187500.02235174447, 0.158, 0.926, -0.318, 192.0, 0.0, 0.0, 0.0, 0.0, 0.0, 0.0, 0.0, 0.0, 0.0, 1.7184658816194944E9, 0.0, 2024-06-15 10:38:01.619
58.0, 54070.16623856619, -136921.35505930844, -183058.4178040526, -187500.02235174447, 92121.61953706975, -187500.02235174447, -187500.02235174447, -187500.02235174447, 0.158, 0.926, -0.318, 192.0, 0.0, 0.0, 0.0, 0.0, 0.0, 0.0, 0.0, 0.0, 0.0, 1.7184658816195045E9, 0.0, 2024-06-15 10:38:01.619
59.0, 52142.41768627378, -139232.39132552044, -183886.28171518823, -187500.02235174447, 91316.1520738783, -187500.02235174447, -187500.02235174447, -187500.02235174447, 0.158, 0.926, -0.318, 192.0, 0.0, 0.0, 0.0, 0.0, 0.0, 0.0, 0.0, 0.0, 0.0, 1.7184658816195138E9, 0.0, 2024-06-15 10:38:01.619
60.0, 48040.67141302484, -152496.78820333342, -187500.02235174447, -187500.02235174447, 88959.40649025518, -187500.02235174447, -187500.02235174447, -187500.02235174447, 0.158, 0.926, -0.318, 192.0, 0.0, 0.0, 0.0, 0.0, 0.0, 0.0, 0.0, 0.0, 0.0, 1.7184658816195235E9, 0.0, 2024-06-15 10:38:01.619
61.0, 48789.92423891118, -153908.2785139416, -187500.02235174447, -187500.02235174447, 89758.79427895478, -187500.02235174447, -187500.02235174447, -187500.02235174447, 0.156, 0.924, -0.32, 192.0, 4.0, 224.0, 28.0, 224.0, 246.0, 0.0, 0.0, 0.0, 0.0, 1.7184658816195333E9, 0.0, 2024-06-15 10:38:01.619
62.0, 51238.937823645814, -146978.41071825157, -184738.71019348028, -187500.02235174447, 92610.58629877404, -187500.02235174447, -187500.02235174447, -187500.02235174447, 0.156, 0.924, -0.32, 192.0, 0.0, 0.0, 0.0, 0.0, 0.0, 0.0, 0.0, 0.0, 0.0, 1.7184658816195428E9, 0.0, 2024-06-15 10:38:01.619
63.0, 50641.699211800005, -147028.6574397871, -184950.42591696096, -187500.02235174447, 92054.45254498156, -187500.02235174447, -187500.02235174447, -187500.02235174447, 0.156, 0.924, -0.32, 192.0, 0.0, 0.0, 0.0, 0.0, 0.0, 0.0, 0.0, 0.0, 0.0, 1.7184658816195543E9, 0.0, 2024-06-15 10:38:01.619
64.0, 48326.729038563855, -154089.30529228513, -187500.02235174447, -187500.02235174447, 88963.02747285693, -187500.02235174447, -187500.02235174447, -187500.02235174447, 0.156, 0.924, -0.32, 192.0, 0.0, 0.0, 0.0, 0.0, 0.0, 0.0, 0.0, 0.0, 0.0, 1.7184658816195688E9, 0.0, 2024-06-15 10:38:01.619
65.0, 48772.042843346935, -155170.7720960107, -187500.02235174447, -187500.02235174447, 88961.86518214527, -187500.02235174447, -187500.02235174447, -187500.02235174447, 0.156, 0.924, -0.32, 192.0, 0.0, 0.0, 0.0, 0.0, 0.0, 0.0, 0.0, 0.0, 0.0, 1.7184658816195788E9, 0.0, 2024-06-15 10:38:01.619
66.0, 51266.341062348016, -148188.06477642833, -185631.84119842545, -187500.02235174447, 92036.70525988404, -187500.02235174447, -187500.02235174447, -187500.02235174447, 0.156, 0.924, -0.32, 192.0, 0.0, 0.0, 0.0, 0.0, 0.0, 0.0, 0.0, 0.0, 0.0, 1.7184658816195884E9, 0.0, 2024-06-15 10:38:01.619
67.0, 51207.71243664175, -146498.94344794078, -184715.7549519247, -187500.02235174447, 92356.98340618414, -187500.02235174447, -187500.02235174447, -187500.02235174447, 0.156, 0.924, -0.32, 192.0, 0.0, 0.0, 0.0, 0.0, 0.0, 0.0, 0.0, 0.0, 0.0, 1.7184658816195977E9, 0.0, 2024-06-15 10:38:01.619
68.0, 48859.72873684511, -152935.82116792456, -187500.02235174447, -187500.02235174447, 89364.2412858297, -187500.02235174447, -187500.02235174447, -187500.02235174447, 0.156, 0.924, -0.32, 192.0, 0.0, 0.0, 0.0, 0.0, 0.0, 0.0, 0.0, 0.0, 0.0, 1.7184658816196072E9, 0.0, 2024-06-15 10:38:01.619
69.0, 48627.91879509912, -155842.6431825928, -187500.02235174447, -187500.02235174447, 88612.84269247565, -187500.02235174447, -187500.02235174447, -187500.02235174447, 0.156, 0.924, -0.32, 192.0, 0.0, 0.0, 0.0, 0.0, 0.0, 0.0, 0.0, 0.0, 0.0, 1.718465881619617E9, 0.0, 2024-06-15 10:38:01.619
0.0, 0.0, 0.0, 0.0, 0.0, 0.0, 0.0, 0.0, 0.0, 0.078, 0.926, -0.336, 192.0, 2.0, 112.0, 28.0, 240.0, 245.0, 128.0, 0.0, 0.0, 0.0, 1.7184658817307222E9, 0.0, 2024-06-15 10:38:01.730
1.0, 51280.71323403278, -139910.69971450564, -6321.766236038952, -187500.02235174447, 90681.94367670342, -187500.02235174447, -187500.02235174447, -187500.02235174447, 0.078, 0.926, -0.336, 192.0, 0.0, 0.0, 0.0, 0.0, 0.0, 0.0, 0.0, 0.0, 0.0, 1.7184658822092006E9, 0.0, 2024-06-15 10:38:02.209
2.0, 53850.22507312597, -135437.84742806523, -3254.838675837359, -187500.02235174447, 93400.83222399143, -187500.02235174447, -187500.02235174447, -187500.02235174447, 0.078, 0.926, -0.336, 192.0, 0.0, 0.0, 0.0, 0.0, 0.0, 0.0, 0.0, 0.0, 0.0, 1.718465882209326E9, 0.0, 2024-06-15 10:38:02.209
3.0, 55805.198050164945, -129167.69136997359, 736.4452763134572, -187500.02235174447, 96084.56147725123, -187500.02235174447, -187500.02235174447, -187500.02235174447, 0.078, 0.926, -0.336, 192.0, 0.0, 0.0, 0.0, 0.0, 0.0, 0.0, 0.0, 0.0, 0.0, 1.7184658822093372E9, 0.0, 2024-06-15 10:38:02.209
4.0, 53716.58399302769, -132443.27246466547, -1643.9484529433792, -187500.02235174447, 93822.07319999614, -187500.02235174447, -187500.02235174447, -187500.02235174447, 0.078, 0.926, -0.336, 192.0, 0.0, 0.0, 0.0, 0.0, 0.0, 0.0, 0.0, 0.0, 0.0, 1.718465882209349E9, 0.0, 2024-06-15 10:38:02.209
5.0, 51338.40308647193, -139616.3048882848, -6153.6364142461325, -187500.02235174447, 90649.82421992114, -187500.02235174447, -187500.02235174447, -187500.02235174447, 0.078, 0.926, -0.336, 192.0, 0.0, 0.0, 0.0, 0.0, 0.0, 0.0, 0.0, 0.0, 0.0, 1.718465882209359E9, 0.0, 2024-06-15 10:38:02.209
6.0, 53388.05805302359, -136485.2725249854, -4071.169086834084, -187500.02235174447, 92649.94772075984, -187500.02235174447, -187500.02235174447, -187500.02235174447, 0.078, 0.926, -0.336, 192.0, 0.0, 0.0, 0.0, 0.0, 0.0, 0.0, 0.0, 0.0, 0.0, 1.7184658822093692E9, 0.0, 2024-06-15 10:38:02.209
7.0, 55856.87528334562, -129350.05925298444, 572.5622859671457, -187500.02235174447, 95941.97969937083, -187500.02235174447, -187500.02235174447, -187500.02235174447, 0.078, 0.926, -0.336, 192.0, 0.0, 0.0, 0.0, 0.0, 0.0, 0.0, 0.0, 0.0, 0.0, 1.7184658822093794E9, 0.0, 2024-06-15 10:38:02.209
8.0, 54363.37642233091, -130910.99332702081, -651.1510194720054, -187500.02235174447, 94507.84707162943, -187500.02235174447, -187500.02235174447, -187500.02235174447, 0.042, 0.918, -0.342, 192.0, 1.0, 80.0, 28.0, 176.0, 245.0, 80.0, 0.0, 0.0, 0.0, 1.7184658822093892E9, 0.0, 2024-06-15 10:38:02.209
9.0, 51557.83016178968, -138575.92059086807, -5521.909060705789, -187500.02235174447, 90924.61656625468, -187500.02235174447, -187500.02235174447, -187500.02235174447, 0.042, 0.918, -0.342, 192.0, 0.0, 0.0, 0.0, 0.0, 0.0, 0.0, 0.0, 0.0, 0.0, 1.7184658822093995E9, 0.0, 2024-06-15 10:38:02.209
10.0, 52848.039906983366, -137591.10273016724, -4752.159685153924, -187500.02235174447, 91977.49548882192, -187500.02235174447, -187500.02235174447, -187500.02235174447, 0.042, 0.918, -0.342, 192.0, 0.0, 0.0, 0.0, 0.0, 0.0, 0.0, 0.0, 0.0, 0.0, 1.7184658822094097E9, 0.0, 2024-06-15 10:38:02.209
11.0, 55725.37997071505, -129959.7254347474, 232.88282547984429, -187500.02235174447, 95645.59556789346, -187500.02235174447, -187500.02235174447, -187500.02235174447, 0.042, 0.918, -0.342, 192.0, 0.0, 0.0, 0.0, 0.0, 0.0, 0.0, 0.0, 0.0, 0.0, 1.7184658822094195E9, 0.0, 2024-06-15 10:38:02.209
12.0, 54931.35660068472, -129690.38691406095, 255.63690133534686, -187500.02235174447, 95125.6492883741, -187500.02235174447, -187500.02235174447, -187500.02235174447, 0.042, 0.918, -0.342, 192.0, 0.0, 0.0, 0.0, 0.0, 0.0, 0.0, 0.0, 0.0, 0.0, 1.7184658822094293E9, 0.0, 2024-06-15 10:38:02.209
13.0, 51921.06836093288, -137225.83052227861, -4614.830567220517, -187500.02235174447, 91387.43178694628, -187500.02235174447, -187500.02235174447, -187500.02235174447, 0.042, 0.918, -0.342, 192.0, 0.0, 0.0, 0.0, 0.0, 0.0, 0.0, 0.0, 0.0, 0.0, 1.7184658822094395E9, 0.0, 2024-06-15 10:38:02.209
14.0, 52349.05956376309, -138487.60884852515, -5254.872769698235, -187500.02235174447, 91385.73305436768, -187500.02235174447, -187500.02235174447, -187500.02235174447, 0.042, 0.918, -0.342, 192.0, 0.0, 0.0, 0.0, 0.0, 0.0, 0.0, 0.0, 0.0, 0.0, 1.7184658822094493E9, 0.0, 2024-06-15 10:38:02.209
15.0, 55427.61003108144, -130914.9495857894, -304.52016645910345, -187500.02235174447, 95159.82510564628, -187500.02235174447, -187500.02235174447, -187500.02235174447, 0.042, 0.918, -0.342, 192.0, 0.0, 0.0, 0.0, 0.0, 0.0, 0.0, 0.0, 0.0, 0.0, 1.7184658822094593E9, 0.0, 2024-06-15 10:38:02.209
16.0, 55348.82013187649, -128897.30231729774, 909.1348539751594, -187500.02235174447, 95562.93881689773, -187500.02235174447, -187500.02235174447, -187500.02235174447, 0.042, 0.918, -0.342, 192.0, 0.0, 0.0, 0.0, 0.0, 0.0, 0.0, 0.0, 0.0, 0.0, 1.7184658822094696E9, 0.0, 2024-06-15 10:38:02.209
17.0, 52345.058601505596, -135809.1546069568, -3653.0350033086543, -187500.02235174447, 91927.62874694214, -187500.02235174447, -187500.02235174447, -187500.02235174447, 0.042, 0.918, -0.342, 192.0, 0.0, 0.0, 0.0, 0.0, 0.0, 0.0, 0.0, 0.0, 0.0, 1.7184658822094796E9, 0.0, 2024-06-15 10:38:02.209
18.0, 51915.167500396674, -139155.2554554052, -5599.827241876989, -187500.02235174447, 90919.09568537422, -187500.02235174447, -187500.02235174447, -187500.02235174447, 0.02, 0.926, -0.34, 192.0, 0.0, 160.0, 28.0, 240.0, 245.0, 96.0, 0.0, 0.0, 0.0, 1.7184658822094896E9, 0.0, 2024-06-15 10:38:02.209
19.0, 54998.098909628265, -132153.66091175805, -1014.4115703596557, -187500.02235174447, 94547.94610118224, -187500.02235174447, -187500.02235174447, -187500.02235174447, 0.02, 0.926, -0.34, 192.0, 0.0, 0.0, 0.0, 0.0, 0.0, 0.0, 0.0, 0.0, 0.0, 1.7184658822094991E9, 0.0, 2024-06-15 10:38:02.209
20.0, 55674.68621429041, -128442.35491065442, 1362.0482518730464, -187500.02235174447, 95886.61442835504, -187500.02235174447, -187500.02235174447, -187500.02235174447, 0.02, 0.926, -0.34, 192.0, 0.0, 0.0, 0.0, 0.0, 0.0, 0.0, 0.0, 0.0, 0.0, 1.718465882209509E9, 0.0, 2024-06-15 10:38:02.209
21.0, 52876.69484337507, -134272.44982391, -2568.997748970717, -187500.02235174447, 92611.63683076344, -187500.02235174447, -187500.02235174447, -187500.02235174447, 0.02, 0.926, -0.34, 192.0, 0.0, 0.0, 0.0, 0.0, 0.0, 0.0, 0.0, 0.0, 0.0, 1.718465882209518E9, 0.0, 2024-06-15 10:38:02.209
22.0, 51656.781334493324, -139368.46874576434, -5625.956431145243, -187500.02235174447, 90703.06607521369, -187500.02235174447, -187500.02235174447, -187500.02235174447, 0.02, 0.926, -0.34, 192.0, 0.0, 0.0, 0.0, 0.0, 0.0, 0.0, 0.0, 0.0, 0.0, 1.7184658822095275E9, 0.0, 2024-06-15 10:38:02.209
23.0, 54505.2652961332, -133453.6607210232, -1729.1980062959203, -187500.02235174447, 93923.32660237869, -187500.02235174447, -187500.02235174447, -187500.02235174447, 0.02, 0.926, -0.34, 192.0, 0.0, 0.0, 0.0, 0.0, 0.0, 0.0, 0.0, 0.0, 0.0, 1.7184658822095375E9, 0.0, 2024-06-15 10:38:02.209
24.0, 55890.17938258403, -128256.67896946419, 1663.4391741084069, -187500.02235174447, 96103.91808794953, -187500.02235174447, -187500.02235174447, -187500.02235174447, 0.02, 0.926, -0.34, 192.0, 0.0, 0.0, 0.0, 0.0, 0.0, 0.0, 0.0, 0.0, 0.0, 1.7184658822095473E9, 0.0, 2024-06-15 10:38:02.209
25.0, 53462.131734148476, -132682.3690751039, -1405.0530082050573, -187500.02235174447, 93377.20643010217, -187500.02235174447, -187500.02235174447, -187500.02235174447, 0.02, 0.926, -0.34, 192.0, 0.0, 0.0, 0.0, 0.0, 0.0, 0.0, 0.0, 0.0, 0.0, 1.7184658822095573E9, 0.0, 2024-06-15 10:38:02.209
26.0, 51523.85551021761, -139186.72671159825, -5412.586678574882, -187500.02235174447, 90657.13324035803, -187500.02235174447, -187500.02235174447, -187500.02235174447, 0.02, 0.926, -0.34, 192.0, 0.0, 0.0, 0.0, 0.0, 0.0, 0.0, 0.0, 0.0, 0.0, 1.7184658822095675E9, 0.0, 2024-06-15 10:38:02.209
27.0, 53933.038286332885, -134839.71474644123, -2500.4225969818353, -187500.02235174447, 93233.1047335988, -187500.02235174447, -187500.02235174447, -187500.02235174447, 0.02, 0.926, -0.34, 192.0, 0.0, 0.0, 0.0, 0.0, 0.0, 0.0, 0.0, 0.0, 0.0, 1.718465882209578E9, 0.0, 2024-06-15 10:38:02.209
28.0, 55946.17050244457, -128450.75916656962, 1692.8317180671356, -187500.02235174447, 96120.86071024665, -187500.02235174447, -187500.02235174447, -187500.02235174447, 0.02, 0.918, -0.338, 192.0, 0.0, 160.0, 28.0, 176.0, 245.0, 112.0, 0.0, 0.0, 0.0, 1.7184658822095873E9, 0.0, 2024-06-15 10:38:02.209
29.0, 54047.8591975998, -131244.1237263827, -327.8777394148993, -187500.02235174447, 94122.79356989784, -187500.02235174447, -187500.02235174447, -187500.02235174447, 0.02, 0.918, -0.338, 192.0, 0.0, 0.0, 0.0, 0.0, 0.0, 0.0, 0.0, 0.0, 0.0, 1.718465882209597E9, 0.0, 2024-06-15 10:38:02.209
30.0, 51552.30928090922, -138623.1721786466, -4972.950216883447, -187500.02235174447, 90799.15622462705, -187500.02235174447, -187500.02235174447, -187500.02235174447, 0.02, 0.918, -0.338, 192.0, 0.0, 0.0, 0.0, 0.0, 0.0, 0.0, 0.0, 0.0, 0.0, 1.718465882209607E9, 0.0, 2024-06-15 10:38:02.209
31.0, 53338.21366288825, -136234.12832428556, -3296.6364379687834, -187500.02235174447, 92515.39021913889, -187500.02235174447, -187500.02235174447, -187500.02235174447, 0.02, 0.918, -0.338, 192.0, 0.0, 0.0, 0.0, 0.0, 0.0, 0.0, 0.0, 0.0, 0.0, 1.7184658822096164E9, 0.0, 2024-06-15 10:38:02.209
32.0, 55875.606045199165, -129002.2437575154, 1467.2355612797214, -187500.02235174447, 95946.15947558398, -187500.02235174447, -187500.02235174447, -187500.02235174447, 0.02, 0.918, -0.338, 192.0, 0.0, 0.0, 0.0, 0.0, 0.0, 0.0, 0.0, 0.0, 0.0, 1.7184658822096312E9, 0.0, 2024-06-15 10:38:02.209
33.0, 54588.570247718126, -130023.80788610077, 624.4406848479134, -187500.02235174447, 94789.83667967758, -187500.02235174447, -187500.02235174447, -187500.02235174447, 0.02, 0.918, -0.338, 192.0, 0.0, 0.0, 0.0, 0.0, 0.0, 0.0, 0.0, 0.0, 0.0, 1.7184658822096417E9, 0.0, 2024-06-15 10:38:02.209
34.0, 51767.82480094729, -137647.496181428, -4245.177417418649, -187500.02235174447, 91152.29143527645, -187500.02235174447, -187500.02235174447, -187500.02235174447, 0.02, 0.918, -0.338, 192.0, 0.0, 0.0, 0.0, 0.0, 0.0, 0.0, 0.0, 0.0, 0.0, 1.7184658822096515E9, 0.0, 2024-06-15 10:38:02.209
35.0, 52802.799976205824, -137359.00221574333, -3867.298825657228, -187500.02235174447, 91913.43538921302, -187500.02235174447, -187500.02235174447, -187500.02235174447, 0.02, 0.918, -0.338, 192.0, 0.0, 0.0, 0.0, 0.0, 0.0, 0.0, 0.0, 0.0, 0.0, 1.7184658822096612E9, 0.0, 2024-06-15 10:38:02.209
36.0, 55675.96026372436, -129779.52567094871, 1122.012868167504, -187500.02235174447, 95629.34584967446, -187500.02235174447, -187500.02235174447, -187500.02235174447, 0.02, 0.918, -0.338, 192.0, 0.0, 0.0, 0.0, 0.0, 0.0, 0.0, 0.0, 0.0, 0.0, 1.7184658822096713E9, 0.0, 2024-06-15 10:38:02.209
37.0, 55088.064681060874, -128990.82201609875, 1504.182994864344, -187500.02235174447, 95391.63504739226, -187500.02235174447, -187500.02235174447, -187500.02235174447, 0.02, 0.918, -0.338, 192.0, 0.0, 0.0, 0.0, 0.0, 0.0, 0.0, 0.0, 0.0, 0.0, 1.718465882209681E9, 0.0, 2024-06-15 10:38:02.209
38.0, 52092.12626124934, -136388.40006451608, -3331.8851389748024, -187500.02235174447, 91632.54101664317, -187500.02235174447, -187500.02235174447, -187500.02235174447, 0.02, 0.918, -0.338, 192.0, 0.0, 0.0, 0.0, 0.0, 0.0, 0.0, 0.0, 0.0, 0.0, 1.7184658822096908E9, 0.0, 2024-06-15 10:38:02.209
39.0, 52261.4854289872, -138337.3157188077, -4392.073081978927, -187500.02235174447, 91309.80417845299, -187500.02235174447, -187500.02235174447, -187500.02235174447, 0.01, 0.93, -0.34600000000000003, 192.0, 0.0, 80.0, 29.0, 16.0, 245.0, 48.0, 0.0, 0.0, 0.0, 1.7184658822097008E9, 0.0, 2024-06-15 10:38:02.209
40.0, 55296.29353240652, -130950.15358330651, 458.72485145626683, -187500.02235174447, 95057.00708115185, -187500.02235174447, -187500.02235174447, -187500.02235174447, 0.01, 0.93, -0.34600000000000003, 192.0, 0.0, 0.0, 0.0, 0.0, 0.0, 0.0, 0.0, 0.0, 0.0, 1.718465882209711E9, 0.0, 2024-06-15 10:38:02.209
41.0, 55450.632327870415, -128392.3540583079, 2052.0242514639203, -187500.02235174447, 95771.14531649892, -187500.02235174447, -187500.02235174447, -187500.02235174447, 0.01, 0.93, -0.34600000000000003, 192.0, 0.0, 0.0, 0.0, 0.0, 0.0, 0.0, 0.0, 0.0, 0.0, 1.7184658822097206E9, 0.0, 2024-06-15 10:38:02.209
42.0, 52535.339002053624, -135015.5112165822, -2359.56190342449, -187500.02235174447, 92207.22671833358, -187500.02235174447, -187500.02235174447, -187500.02235174447, 0.01, 0.93, -0.34600000000000003, 192.0, 0.0, 0.0, 0.0, 0.0, 0.0, 0.0, 0.0, 0.0, 0.0, 1.7184658822097304E9, 0.0, 2024-06-15 10:38:02.209
43.0, 51890.31236056237, -138929.77105734005, -4659.243483453212, -187500.02235174447, 90917.39695279562, -187500.02235174447, -187500.02235174447, -187500.02235174447, 0.01, 0.93, -0.34600000000000003, 192.0, 0.0, 0.0, 0.0, 0.0, 0.0, 0.0, 0.0, 0.0, 0.0, 1.7184658822097404E9, 0.0, 2024-06-15 10:38:02.209
44.0, 54858.57932073824, -132246.35359601423, -261.7389275716457, -187500.02235174447, 94445.91038774376, -187500.02235174447, -187500.02235174447, -187500.02235174447, 0.01, 0.93, -0.34600000000000003, 192.0, 0.0, 0.0, 0.0, 0.0, 0.0, 0.0, 0.0, 0.0, 0.0, 1.7184658822097504E9, 0.0, 2024-06-15 10:38:02.209
45.0, 55720.03790379023, -128094.76293262995, 2412.915517439308, -187500.02235174447, 96034.4712179269, -187500.02235174447, -187500.02235174447, -187500.02235174447, 0.01, 0.93, -0.34600000000000003, 192.0, 0.0, 0.0, 0.0, 0.0, 0.0, 0.0, 0.0, 0.0, 0.0, 1.718465882209761E9, 0.0, 2024-06-15 10:38:02.209
46.0, 53073.0772701594, -133502.92396580268, -1268.1485734163016, -187500.02235174447, 92913.38538091008, -187500.02235174447, -187500.02235174447, -187500.02235174447, 0.01, 0.93, -0.34600000000000003, 192.0, 0.0, 0.0, 0.0, 0.0, 0.0, 0.0, 0.0, 0.0, 0.0, 1.7184658822097702E9, 0.0, 2024-06-15 10:38:02.209
47.0, 51648.13120938912, -139095.2857250316, -4664.183218977835, -187500.02235174447, 90721.30509868922, -187500.02235174447, -187500.02235174447, -187500.02235174447, 0.01, 0.93, -0.34600000000000003, 192.0, 0.0, 0.0, 0.0, 0.0, 0.0, 0.0, 0.0, 0.0, 0.0, 1.7184658822097793E9, 0.0, 2024-06-15 10:38:02.209
48.0, 54343.10339010994, -133652.7477088866, -1061.6855098826302, -187500.02235174447, 93759.9800538993, -187500.02235174447, -187500.02235174447, -187500.02235174447, 0.01, 0.93, -0.34600000000000003, 192.0, 0.0, 0.0, 0.0, 0.0, 0.0, 0.0, 0.0, 0.0, 0.0, 1.7184658822097886E9, 0.0, 2024-06-15 10:38:02.209
49.0, 55883.67502494753, -128099.8367786213, 2566.6284640584545, -187500.02235174447, 96156.10941125268, -187500.02235174447, -187500.02235174447, -187500.02235174447, 0.006, 0.918, -0.34400000000000003, 192.0, 0.0, 48.0, 28.0, 176.0, 245.0, 64.0, 0.0, 0.0, 0.0, 1.7184658822097983E9, 0.0, 2024-06-15 10:38:02.209
50.0, 53643.02440202527, -132020.35510782662, -185.34066502340616, -187500.02235174447, 93649.94241594583, -187500.02235174447, -187500.02235174447, -187500.02235174447, 0.006, 0.918, -0.34400000000000003, 192.0, 0.0, 0.0, 0.0, 0.0, 0.0, 0.0, 0.0, 0.0, 0.0, 1.7184658822098083E9, 0.0, 2024-06-15 10:38:02.209
51.0, 51559.685356579466, -138815.44188445114, -4398.689198337698, -187500.02235174447, 90738.38183145307, -187500.02235174447, -187500.02235174447, -187500.02235174447, 0.006, 0.918, -0.34400000000000003, 192.0, 0.0, 0.0, 0.0, 0.0, 0.0, 0.0, 0.0, 0.0, 0.0, 1.718465882209818E9, 0.0, 2024-06-15 10:38:02.209
52.0, 53760.37106041564, -135068.99894106376, -1874.7972696777904, -187500.02235174447, 93052.4132314221, -187500.02235174447, -187500.02235174447, -187500.02235174447, 0.006, 0.918, -0.34400000000000003, 192.0, 0.0, 0.0, 0.0, 0.0, 0.0, 0.0, 0.0, 0.0, 0.0, 1.7184658822098277E9, 0.0, 2024-06-15 10:38:02.209
53.0, 55931.194833659516, -128371.14225281982, 2539.4040393118908, -187500.02235174447, 96149.26977744934, -187500.02235174447, -187500.02235174447, -187500.02235174447, 0.006, 0.918, -0.34400000000000003, 192.0, 0.0, 0.0, 0.0, 0.0, 0.0, 0.0, 0.0, 0.0, 0.0, 1.7184658822098591E9, 0.0, 2024-06-15 10:38:02.209
54.0, 54212.748016446596, -130635.82100103152, 859.8045539622968, -187500.02235174447, 94388.22053530462, -187500.02235174447, -187500.02235174447, -187500.02235174447, 0.006, 0.918, -0.34400000000000003, 192.0, 0.0, 0.0, 0.0, 0.0, 0.0, 0.0, 0.0, 0.0, 0.0, 1.7184658822098696E9, 0.0, 2024-06-15 10:38:02.209
55.0, 51641.068058141245, -138127.52224535015, -3878.050014740231, -187500.02235174447, 90952.31037763481, -187500.02235174447, -187500.02235174447, -187500.02235174447, 0.006, 0.918, -0.34400000000000003, 192.0, 0.0, 0.0, 0.0, 0.0, 0.0, 0.0, 0.0, 0.0, 0.0, 1.718465882209879E9, 0.0, 2024-06-15 10:38:02.209
56.0, 53193.888448940335, -136364.72956713793, -2585.3368741675467, -187500.02235174447, 92387.49353736562, -187500.02235174447, -187500.02235174447, -187500.02235174447, 0.006, 0.918, -0.34400000000000003, 192.0, 0.0, 0.0, 0.0, 0.0, 0.0, 0.0, 0.0, 0.0, 0.0, 1.718465882209904E9, 0.0, 2024-06-15 10:38:02.209
57.0, 55796.123241916095, -129041.22519984546, 2224.9149948257204, -187500.02235174447, 95892.7835098247, -187500.02235174447, -187500.02235174447, -187500.02235174447, 0.006, 0.918, -0.34400000000000003, 192.0, 0.0, 0.0, 0.0, 0.0, 0.0, 0.0, 0.0, 0.0, 0.0, 1.7184658822099128E9, 0.0, 2024-06-15 10:38:02.209
58.0, 54726.74873194084, -129519.79840037804, 1741.7596866798028, -187500.02235174447, 95014.4270079645, -187500.02235174447, -187500.02235174447, -187500.02235174447, 0.006, 0.918, -0.34400000000000003, 192.0, 0.0, 0.0, 0.0, 0.0, 0.0, 0.0, 0.0, 0.0, 0.0, 1.7184658822099433E9, 0.0, 2024-06-15 10:38:02.209
59.0, 51843.95484256207, -137138.47990494728, -3174.7970789429046, -187500.02235174447, 91305.17736735074, -187500.02235174447, -187500.02235174447, -187500.02235174447, 0.004, 0.916, -0.34, 192.0, 0.0, 32.0, 28.0, 160.0, 245.0, 96.0, 0.0, 0.0, 0.0, 1.7184658822099533E9, 0.0, 2024-06-15 10:38:02.209
60.0, 52615.69352337045, -137561.8666484197, -3264.561684675418, -187500.02235174447, 91727.35711662259, -187500.02235174447, -187500.02235174447, -187500.02235174447, 0.004, 0.916, -0.34, 192.0, 0.0, 0.0, 0.0, 0.0, 0.0, 0.0, 0.0, 0.0, 0.0, 1.7184658822099624E9, 0.0, 2024-06-15 10:38:02.209
61.0, 55521.46500604928, -130015.44833367447, 1695.7374448463256, -187500.02235174447, 95470.96138846414, -187500.02235174447, -187500.02235174447, -187500.02235174447, 0.004, 0.916, -0.34, 192.0, 0.0, 0.0, 0.0, 0.0, 0.0, 0.0, 0.0, 0.0, 0.0, 1.7184658822099867E9, 0.0, 2024-06-15 10:38:02.209
62.0, 55162.83126626388, -128679.03753269167, 2451.9863667471845, -187500.02235174447, 95535.58028168444, -187500.02235174447, -187500.02235174447, -187500.02235174447, 0.004, 0.916, -0.34, 192.0, 0.0, 0.0, 0.0, 0.0, 0.0, 0.0, 0.0, 0.0, 0.0, 1.7184658822099955E9, 0.0, 2024-06-15 10:38:02.209
63.0, 52212.71392258572, -135834.8144095915, -2244.763343902033, -187500.02235174447, 91852.43747859448, -187500.02235174447, -187500.02235174447, -187500.02235174447, 0.004, 0.916, -0.34, 192.0, 0.0, 0.0, 0.0, 0.0, 0.0, 0.0, 0.0, 0.0, 0.0, 1.7184658822100043E9, 0.0, 2024-06-15 10:38:02.210
64.0, 52132.314697779984, -138404.54976612923, -3698.7443207197575, -187500.02235174447, 91229.11438096933, -187500.02235174447, -187500.02235174447, -187500.02235174447, 0.004, 0.916, -0.34, 192.0, 0.0, 0.0, 0.0, 0.0, 0.0, 0.0, 0.0, 0.0, 0.0, 1.7184658822100132E9, 0.0, 2024-06-15 10:38:02.210
65.0, 55134.24338510554, -131217.5698539698, 1015.1938814155915, -187500.02235174447, 94913.75475093779, -187500.02235174447, -187500.02235174447, -187500.02235174447, 0.004, 0.916, -0.34, 192.0, 0.0, 0.0, 0.0, 0.0, 0.0, 0.0, 0.0, 0.0, 0.0, 1.7184658822100227E9, 0.0, 2024-06-15 10:38:02.210
66.0, 55489.32319752255, -128178.44786387062, 2934.091142903703, -187500.02235174447, 95892.7388063358, -187500.02235174447, -187500.02235174447, -187500.02235174447, 0.004, 0.916, -0.34, 192.0, 0.0, 0.0, 0.0, 0.0, 0.0, 0.0, 0.0, 0.0, 0.0, 1.7184658822100315E9, 0.0, 2024-06-15 10:38:02.210
67.0, 52657.31247154623, -134434.36586074423, -1257.6879570112178, -187500.02235174447, 92464.98703539217, -187500.02235174447, -187500.02235174447, -187500.02235174447, 0.004, 0.916, -0.34, 192.0, 0.0, 0.0, 0.0, 0.0, 0.0, 0.0, 0.0, 0.0, 0.0, 1.7184658822100408E9, 0.0, 2024-06-15 10:38:02.210
68.0, 51762.974472400485, -138891.8848504883, -3914.0586750577304, -187500.02235174447, 90881.12007154466, -187500.02235174447, -187500.02235174447, -187500.02235174447, 0.004, 0.916, -0.34, 192.0, 0.0, 0.0, 0.0, 0.0, 0.0, 0.0, 0.0, 0.0, 0.0, 1.7184658822100499E9, 0.0, 2024-06-15 10:38:02.210
69.0, 54653.61382408307, -132556.17112590923, 265.33755842895016, -187500.02235174447, 94275.14306010521, -187500.02235174447, -187500.02235174447, -187500.02235174447, 0.004, 0.92, -0.34, 192.0, 0.0, 32.0, 28.0, 192.0, 245.0, 96.0, 0.0, 0.0, 0.0, 1.7184658822100587E9, 0.0, 2024-06-15 10:38:02.210
70.0, 55733.203081274405, -127919.61466307816, 3293.3954350227636, -187500.02235174447, 96153.60601587368, -187500.02235174447, -187500.02235174447, -187500.02235174447, 0.004, 0.92, -0.34, 192.0, 0.0, 0.0, 0.0, 0.0, 0.0, 0.0, 0.0, 0.0, 0.0, 1.7184658822100675E9, 0.0, 2024-06-15 10:38:02.210
71.0, 53204.036140923046, -132870.7048738843, -106.21548965161917, -187500.02235174447, 93208.87544260925, -187500.02235174447, -187500.02235174447, -187500.02235174447, 0.004, 0.92, -0.34, 192.0, 0.0, 0.0, 0.0, 0.0, 0.0, 0.0, 0.0, 0.0, 0.0, 1.7184658822100763E9, 0.0, 2024-06-15 10:38:02.210
72.0, 51567.48611539437, -138872.6847020012, -3782.2280862603293, -187500.02235174447, 90766.5673812112, -187500.02235174447, -187500.02235174447, -187500.02235174447, 0.004, 0.92, -0.34, 192.0, 0.0, 0.0, 0.0, 0.0, 0.0, 0.0, 0.0, 0.0, 0.0, 1.7184658822100852E9, 0.0, 2024-06-15 10:38:02.210
73.0, 54119.89886997925, -133918.33113650457, -479.80254647762143, -187500.02235174447, 93601.86381362246, -187500.02235174447, -187500.02235174447, -187500.02235174447, 0.004, 0.92, -0.34, 192.0, 0.0, 0.0, 0.0, 0.0, 0.0, 0.0, 0.0, 0.0, 0.0, 1.7184658822100945E9, 0.0, 2024-06-15 10:38:02.210
74.0, 55820.71016081693, -128038.43653660257, 3378.0414912750116, -187500.02235174447, 96195.49318498293, -187500.02235174447, -187500.02235174447, -187500.02235174447, 0.004, 0.92, -0.34, 192.0, 0.0, 0.0, 0.0, 0.0, 0.0, 0.0, 0.0, 0.0, 0.0, 1.7184658822101033E9, 0.0, 2024-06-15 10:38:02.210
75.0, 53725.34587685417, -131495.24557533808, 899.0318654813607, -187500.02235174447, 93870.7105959309, -187500.02235174447, -187500.02235174447, -187500.02235174447, 0.004, 0.92, -0.34, 192.0, 0.0, 0.0, 0.0, 0.0, 0.0, 0.0, 0.0, 0.0, 0.0, 1.718465882210112E9, 0.0, 2024-06-15 10:38:02.210
76.0, 51500.609695984094, -138540.02368927284, -3510.967315550723, -187500.02235174447, 90769.49545973486, -187500.02235174447, -187500.02235174447, -187500.02235174447, 0.004, 0.92, -0.34, 192.0, 0.0, 0.0, 0.0, 0.0, 0.0, 0.0, 0.0, 0.0, 0.0, 1.718465882210121E9, 0.0, 2024-06-15 10:38:02.210
77.0, 53529.27637449222, -135350.8991421341, -1311.3097919594995, -187500.02235174447, 92852.07454586918, -187500.02235174447, -187500.02235174447, -187500.02235174447, 0.004, 0.92, -0.34, 192.0, 0.0, 0.0, 0.0, 0.0, 0.0, 0.0, 0.0, 0.0, 0.0, 1.7184658822101307E9, 0.0, 2024-06-15 10:38:02.210
78.0, 55820.62075383911, -128436.1634774403, 3266.9309695876805, -187500.02235174447, 96098.62072451362, -187500.02235174447, -187500.02235174447, -187500.02235174447, 0.004, 0.92, -0.34, 192.0, 0.0, 0.0, 0.0, 0.0, 0.0, 0.0, 0.0, 0.0, 0.0, 1.7184658822101395E9, 0.0, 2024-06-15 10:38:02.210
79.0, 54306.37947396988, -130125.26245418341, 1965.254779488418, -187500.02235174447, 94605.16656698783, -187500.02235174447, -187500.02235174447, -187500.02235174447, 0.004, 0.92, -0.34, 192.0, 0.0, 0.0, 0.0, 0.0, 0.0, 0.0, 0.0, 0.0, 0.0, 1.7184658822101488E9, 0.0, 2024-06-15 10:38:02.210
80.0, 51672.18168642303, -137609.2299949205, -2814.9786967013715, -187500.02235174447, 91084.07391119885, -187500.02235174447, -187500.02235174447, -187500.02235174447, 0.008, 0.92, -0.342, 192.0, 0.0, 64.0, 28.0, 192.0, 245.0, 80.0, 0.0, 0.0, 0.0, 1.7184658822101576E9, 0.0, 2024-06-15 10:38:02.210
81.0, 52968.13582994173, -136539.5872640118, -1964.5395236658483, -187500.02235174447, 92191.91577338168, -187500.02235174447, -187500.02235174447, -187500.02235174447, 0.008, 0.92, -0.342, 192.0, 0.0, 0.0, 0.0, 0.0, 0.0, 0.0, 0.0, 0.0, 0.0, 1.7184658822101667E9, 0.0, 2024-06-15 10:38:02.210
82.0, 55648.400562810966, -129168.92071591863, 2900.541174476287, -187500.02235174447, 95784.04227304964, -187500.02235174447, -187500.02235174447, -187500.02235174447, 0.008, 0.92, -0.342, 192.0, 0.0, 0.0, 0.0, 0.0, 0.0, 0.0, 0.0, 0.0, 0.0, 1.7184658822101758E9, 0.0, 2024-06-15 10:38:02.210
83.0, 54781.398747134066, -129110.8732355682, 2767.615350200576, -187500.02235174447, 95170.33042554026, -187500.02235174447, -187500.02235174447, -187500.02235174447, 0.008, 0.92, -0.342, 192.0, 0.0, 0.0, 0.0, 0.0, 0.0, 0.0, 0.0, 0.0, 0.0, 1.7184658822101848E9, 0.0, 2024-06-15 10:38:02.210
84.0, 51910.51833754997, -136540.0790023898, -2094.60432465128, -187500.02235174447, 91453.25767436715, -187500.02235174447, -187500.02235174447, -187500.02235174447, 0.008, 0.92, -0.342, 192.0, 0.0, 0.0, 0.0, 0.0, 0.0, 0.0, 0.0, 0.0, 0.0, 1.7184658822101939E9, 0.0, 2024-06-15 10:38:02.210
85.0, 52423.624983265996, -137609.45351236506, -2592.1541562264156, -187500.02235174447, 91563.85410593201, -187500.02235174447, -187500.02235174447, -187500.02235174447, 0.008, 0.92, -0.342, 192.0, 0.0, 0.0, 0.0, 0.0, 0.0, 0.0, 0.0, 0.0, 0.0, 1.7184658822102027E9, 0.0, 2024-06-15 10:38:02.210
86.0, 55347.07669580897, -130203.56061501034, 2324.760237307577, -187500.02235174447, 95324.66922100417, -187500.02235174447, -187500.02235174447, -187500.02235174447, 0.008, 0.92, -0.342, 192.0, 0.0, 0.0, 0.0, 0.0, 0.0, 0.0, 0.0, 0.0, 0.0, 1.718465882210212E9, 0.0, 2024-06-15 10:38:02.210
87.0, 55215.871955856324, -128335.40181343578, 3446.706050241715, -187500.02235174447, 95681.29130378859, -187500.02235174447, -187500.02235174447, -187500.02235174447, 0.008, 0.92, -0.342, 192.0, 0.0, 0.0, 0.0, 0.0, 0.0, 0.0, 0.0, 0.0, 0.0, 1.7184658822102208E9, 0.0, 2024-06-15 10:38:02.210
88.0, 52320.80695877159, -135154.51671534978, -1124.1809873796687, -187500.02235174447, 92040.10272504124, -187500.02235174447, -187500.02235174447, -187500.02235174447, 0.008, 0.92, -0.342, 192.0, 0.0, 0.0, 0.0, 0.0, 0.0, 0.0, 0.0, 0.0, 0.0, 1.7184658822102296E9, 0.0, 2024-06-15 10:38:02.210
89.0, 51983.45207970763, -138317.400314498, -2987.9364952965375, -187500.02235174447, 91091.49469035801, -187500.02235174447, -187500.02235174447, -187500.02235174447, 0.008, 0.92, -0.342, 192.0, 0.0, 0.0, 0.0, 0.0, 0.0, 0.0, 0.0, 0.0, 0.0, 1.7184658822102385E9, 0.0, 2024-06-15 10:38:02.210
90.0, 54945.41584794711, -131420.74721106855, 1624.435380033896, -187500.02235174447, 94756.75609788371, -187500.02235174447, -187500.02235174447, -187500.02235174447, 0.008, 0.92, -0.34400000000000003, 192.0, 0.0, 64.0, 28.0, 192.0, 245.0, 64.0, 0.0, 0.0, 0.0, 1.7184658822102475E9, 0.0, 2024-06-15 10:38:02.210
91.0, 55505.46115701928, -127916.37366013214, 3881.6039421086243, -187500.02235174447, 96014.46640663939, -187500.02235174447, -187500.02235174447, -187500.02235174447, 0.008, 0.92, -0.34400000000000003, 192.0, 0.0, 0.0, 0.0, 0.0, 0.0, 0.0, 0.0, 0.0, 0.0, 1.7184658822102563E9, 0.0, 2024-06-15 10:38:02.210
92.0, 52795.535659257854, -133692.24324133914, -99.53231805948235, -187500.02235174447, 92696.86403237154, -187500.02235174447, -187500.02235174447, -187500.02235174447, 0.008, 0.92, -0.34400000000000003, 192.0, 0.0, 0.0, 0.0, 0.0, 0.0, 0.0, 0.0, 0.0, 0.0, 1.7184658822102652E9, 0.0, 2024-06-15 10:38:02.210
93.0, 51713.91239332109, -138538.2579014609, -3050.1637518601124, -187500.02235174447, 90861.20466723498, -187500.02235174447, -187500.02235174447, -187500.02235174447, 0.008, 0.92, -0.34400000000000003, 192.0, 0.0, 0.0, 0.0, 0.0, 0.0, 0.0, 0.0, 0.0, 0.0, 1.7184658822102742E9, 0.0, 2024-06-15 10:38:02.210
94.0, 54450.92820536235, -132742.3835089664, 848.829847434741, -187500.02235174447, 94097.67020913008, -187500.02235174447, -187500.02235174447, -187500.02235174447, 0.008, 0.92, -0.34400000000000003, 192.0, 0.0, 0.0, 0.0, 0.0, 0.0, 0.0, 0.0, 0.0, 0.0, 1.718465882210283E9, 0.0, 2024-06-15 10:38:02.210
95.0, 55699.40724365798, -127800.47986513138, 4112.229241398482, -187500.02235174447, 96199.94118212954, -187500.02235174447, -187500.02235174447, -187500.02235174447, 0.008, 0.92, -0.34400000000000003, 192.0, 0.0, 0.0, 0.0, 0.0, 0.0, 0.0, 0.0, 0.0, 0.0, 1.7184658822102919E9, 0.0, 2024-06-15 10:38:02.210
96.0, 53325.093188892984, -132221.1184765242, 960.6779766890976, -187500.02235174447, 93412.11985494135, -187500.02235174447, -187500.02235174447, -187500.02235174447, 0.008, 0.92, -0.34400000000000003, 192.0, 0.0, 0.0, 0.0, 0.0, 0.0, 0.0, 0.0, 0.0, 0.0, 1.7184658822103007E9, 0.0, 2024-06-15 10:38:02.210
97.0, 51523.877861962064, -138481.55152577776, -2991.691588365029, -187500.02235174447, 90720.72395333338, -187500.02235174447, -187500.02235174447, -187500.02235174447, 0.008, 0.92, -0.34400000000000003, 192.0, 0.0, 0.0, 0.0, 0.0, 0.0, 0.0, 0.0, 0.0, 0.0, 1.7184658822103095E9, 0.0, 2024-06-15 10:38:02.210
98.0, 53890.65937884562, -134167.32956973667, -23.35757295579588, -187500.02235174447, 93360.01793861603, -187500.02235174447, -187500.02235174447, -187500.02235174447, 0.008, 0.92, -0.34400000000000003, 192.0, 0.0, 0.0, 0.0, 0.0, 0.0, 0.0, 0.0, 0.0, 0.0, 1.7184658822103183E9, 0.0, 2024-06-15 10:38:02.210
99.0, 55738.07576156566, -128078.1332347552, 4040.860121352687, -187500.02235174447, 96170.705100382, -187500.02235174447, -187500.02235174447, -187500.02235174447, 0.008, 0.92, -0.34400000000000003, 192.0, 0.0, 0.0, 0.0, 0.0, 0.0, 0.0, 0.0, 0.0, 0.0, 1.7184658822103271E9, 0.0, 2024-06-15 10:38:02.210
100.0, 53843.072514900276, -130931.57928366415, 1896.1208338881534, -187500.02235174447, 94076.72662457546, -187500.02235174447, -187500.02235174447, -187500.02235174447, 0.006, 0.918, -0.35000000000000003, 192.0, 0.0, 48.0, 28.0, 176.0, 245.0, 16.0, 0.0, 0.0, 0.0, 1.7184658822103364E9, 0.0, 2024-06-15 10:38:02.210
101.0, 51522.02266717228, -138001.25724092213, -2663.2997588276576, -187500.02235174447, 90803.3807043291, -187500.02235174447, -187500.02235174447, -187500.02235174447, 0.006, 0.918, -0.35000000000000003, 192.0, 0.0, 0.0, 0.0, 0.0, 0.0, 0.0, 0.0, 0.0, 0.0, 1.7184658822103453E9, 0.0, 2024-06-15 10:38:02.210
102.0, 53294.35954026694, -135560.67026384716, -894.4274061235674, -187500.02235174447, 92596.75056895621, -187500.02235174447, -187500.02235174447, -187500.02235174447, 0.006, 0.918, -0.35000000000000003, 192.0, 0.0, 0.0, 0.0, 0.0, 0.0, 0.0, 0.0, 0.0, 0.0, 1.718465882210354E9, 0.0, 2024-06-15 10:38:02.210
103.0, 55676.429650357924, -128629.23784604525, 3779.300007736684, -187500.02235174447, 95987.93488597094, -187500.02235174447, -187500.02235174447, -187500.02235174447, 0.006, 0.918, -0.35000000000000003, 192.0, 0.0, 0.0, 0.0, 0.0, 0.0, 0.0, 0.0, 0.0, 0.0, 1.718465882210363E9, 0.0, 2024-06-15 10:38:02.210
104.0, 54394.60180933498, -129731.00003373624, 2832.3683538876003, -187500.02235174447, 94768.35665325602, -187500.02235174447, -187500.02235174447, -187500.02235174447, 0.006, 0.918, -0.35000000000000003, 192.0, 0.0, 0.0, 0.0, 0.0, 0.0, 0.0, 0.0, 0.0, 0.0, 1.718465882210372E9, 0.0, 2024-06-15 10:38:02.210
105.0, 51701.037788514834, -137106.02517199816, -2030.678335509102, -187500.02235174447, 91122.87653957326, -187500.02235174447, -187500.02235174447, -187500.02235174447, 0.006, 0.918, -0.35000000000000003, 192.0, 0.0, 0.0, 0.0, 0.0, 0.0, 0.0, 0.0, 0.0, 0.0, 1.7184658822103813E9, 0.0, 2024-06-15 10:38:02.210
106.0, 52748.52994066834, -136732.48281866108, -1592.69590290736, -187500.02235174447, 91942.29149130482, -187500.02235174447, -187500.02235174447, -187500.02235174447, 0.006, 0.918, -0.35000000000000003, 192.0, 0.0, 0.0, 0.0, 0.0, 0.0, 0.0, 0.0, 0.0, 0.0, 1.71846588221039E9, 0.0, 2024-06-15 10:38:02.210
107.0, 55457.9413483073, -129503.72749611468, 3279.4032429937415, -187500.02235174447, 95612.64909656634, -187500.02235174447, -187500.02235174447, -187500.02235174447, 0.006, 0.918, -0.35000000000000003, 192.0, 0.0, 0.0, 0.0, 0.0, 0.0, 0.0, 0.0, 0.0, 0.0, 1.718465882210399E9, 0.0, 2024-06-15 10:38:02.210
108.0, 54867.229445842444, -128805.21313014188, 3597.021531703655, -187500.02235174447, 95355.5593318414, -187500.02235174447, -187500.02235174447, -187500.02235174447, 0.006, 0.918, -0.35000000000000003, 192.0, 0.0, 0.0, 0.0, 0.0, 0.0, 0.0, 0.0, 0.0, 0.0, 1.718465882210408E9, 0.0, 2024-06-15 10:38:02.210
109.0, 52015.88446091229, -135917.9852507097, -1183.390758441777, -187500.02235174447, 91634.59737713306, -187500.02235174447, -187500.02235174447, -187500.02235174447, 0.006, 0.918, -0.35000000000000003, 192.0, 0.0, 0.0, 0.0, 0.0, 0.0, 0.0, 0.0, 0.0, 0.0, 1.718465882210417E9, 0.0, 2024-06-15 10:38:02.210
110.0, 52270.06849885804, -137628.5866056188, -2097.487699686015, -187500.02235174447, 91429.31895605552, -187500.02235174447, -187500.02235174447, -187500.02235174447, 0.006, 0.92, -0.35000000000000003, 192.0, 0.0, 48.0, 28.0, 192.0, 245.0, 16.0, 0.0, 0.0, 0.0, 1.7184658822104259E9, 0.0, 2024-06-15 10:38:02.210
111.0, 55170.60967333432, -130486.95838295919, 2747.4987801907996, -187500.02235174447, 95205.71323701301, -187500.02235174447, -187500.02235174447, -187500.02235174447, 0.006, 0.92, -0.35000000000000003, 192.0, 0.0, 0.0, 0.0, 0.0, 0.0, 0.0, 0.0, 0.0, 0.0, 1.718465882210435E9, 0.0, 2024-06-15 10:38:02.210
112.0, 55235.63089795481, -128149.97174143455, 4199.40104477418, -187500.02235174447, 95829.72923871627, -187500.02235174447, -187500.02235174447, -187500.02235174447, 0.006, 0.92, -0.35000000000000003, 192.0, 0.0, 0.0, 0.0, 0.0, 0.0, 0.0, 0.0, 0.0, 0.0, 1.7184658822104437E9, 0.0, 2024-06-15 10:38:02.210
113.0, 52409.23045983678, -134584.05549336143, -235.65444179230235, -187500.02235174447, 92238.56386405992, -187500.02235174447, -187500.02235174447, -187500.02235174447, 0.006, 0.92, -0.35000000000000003, 192.0, 0.0, 0.0, 0.0, 0.0, 0.0, 0.0, 0.0, 0.0, 0.0, 1.7184658822104526E9, 0.0, 2024-06-15 10:38:02.210
114.0, 51841.22792973852, -138261.56565684863, -2459.8318290509974, -187500.02235174447, 91000.52309042492, -187500.02235174447, -187500.02235174447, -187500.02235174447, 0.006, 0.92, -0.35000000000000003, 192.0, 0.0, 0.0, 0.0, 0.0, 0.0, 0.0, 0.0, 0.0, 0.0, 1.7184658822104616E9, 0.0, 2024-06-15 10:38:02.210
115.0, 54694.830440858655, -131824.53147465366, 1909.2413078834186, -187500.02235174447, 94541.41939180129, -187500.02235174447, -187500.02235174447, -187500.02235174447, 0.006, 0.92, -0.35000000000000003, 192.0, 0.0, 0.0, 0.0, 0.0, 0.0, 0.0, 0.0, 0.0, 0.0, 1.7184658822104704E9, 0.0, 2024-06-15 10:38:02.210
116.0, 55492.586552213026, -127869.65851422054, 4520.260336430113, -187500.02235174447, 96111.04829443077, -187500.02235174447, -187500.02235174447, -187500.02235174447, 0.006, 0.92, -0.35000000000000003, 192.0, 0.0, 0.0, 0.0, 0.0, 0.0, 0.0, 0.0, 0.0, 0.0, 1.7184658822104795E9, 0.0, 2024-06-15 10:38:02.210
117.0, 52891.46934646003, -133185.1492148816, 764.5190673493228, -187500.02235174447, 92923.77894208182, -187500.02235174447, -187500.02235174447, -187500.02235174447, 0.006, 0.92, -0.35000000000000003, 192.0, 0.0, 0.0, 0.0, 0.0, 0.0, 0.0, 0.0, 0.0, 0.0, 1.7184658822104888E9, 0.0, 2024-06-15 10:38:02.210
118.0, 51578.46082192193, -138486.24539211337, -2550.5799115395444, -187500.02235174447, 90781.78891918527, -187500.02235174447, -187500.02235174447, -187500.02235174447, 0.006, 0.92, -0.35000000000000003, 192.0, 0.0, 0.0, 0.0, 0.0, 0.0, 0.0, 0.0, 0.0, 0.0, 1.7184658822104976E9, 0.0, 2024-06-15 10:38:02.210
119.0, 54173.72187062763, -133215.48053210744, 1055.2482074795018, -187500.02235174447, 93848.96234857588, -187500.02235174447, -187500.02235174447, -187500.02235174447, 0.006, 0.92, -0.35000000000000003, 192.0, 0.0, 0.0, 0.0, 0.0, 0.0, 0.0, 0.0, 0.0, 0.0, 1.718465882210507E9, 0.0, 2024-06-15 10:38:02.210
120.0, 55597.25977149723, -127950.9071053156, 4568.942435853772, -187500.02235174447, 96185.56901044477, -187500.02235174447, -187500.02235174447, -187500.02235174447, 0.006, 0.92, -0.35000000000000003, 192.0, 0.0, 0.0, 0.0, 0.0, 0.0, 0.0, 0.0, 0.0, 0.0, 1.7184658822105155E9, 0.0, 2024-06-15 10:38:02.210
121.0, 53385.66641636687, -131872.0736351101, 1699.4925379148171, -187500.02235174447, 93588.27395299364, -187500.02235174447, -187500.02235174447, -187500.02235174447, 0.006, 0.92, -0.352, 192.0, 0.0, 48.0, 28.0, 192.0, 245.0, 0.0, 0.0, 0.0, 0.0, 1.7184658826893418E9, 0.0, 2024-06-15 10:38:02.689
122.0, 51451.949948304886, -138344.20005609991, -2427.108875168428, -187500.02235174447, 90729.0611540152, -187500.02235174447, -187500.02235174447, -187500.02235174447, 0.006, 0.92, -0.352, 192.0, 0.0, 0.0, 0.0, 0.0, 0.0, 0.0, 0.0, 0.0, 0.0, 1.7184658826893785E9, 0.0, 2024-06-15 10:38:02.689
123.0, 53630.17214896347, -134601.9145371812, 208.00533390108754, -187500.02235174447, 93142.69192727709, -187500.02235174447, -187500.02235174447, -187500.02235174447, 0.006, 0.92, -0.352, 192.0, 0.0, 0.0, 0.0, 0.0, 0.0, 0.0, 0.0, 0.0, 0.0, 1.7184658826893988E9, 0.0, 2024-06-15 10:38:02.689
124.0, 55623.72423693231, -128285.40096108925, 4448.801809406496, -187500.02235174447, 96133.40003888609, -187500.02235174447, -187500.02235174447, -187500.02235174447, 0.006, 0.92, -0.352, 192.0, 0.0, 0.0, 0.0, 0.0, 0.0, 0.0, 0.0, 0.0, 0.0, 1.7184658826894193E9, 0.0, 2024-06-15 10:38:02.689
125.0, 53930.512539209434, -130584.5237475066, 2661.779840204697, -187500.02235174447, 94305.54143256444, -187500.02235174447, -187500.02235174447, -187500.02235174447, 0.006, 0.92, -0.352, 192.0, 0.0, 0.0, 0.0, 0.0, 0.0, 0.0, 0.0, 0.0, 0.0, 1.71846588268945E9, 0.0, 2024-06-15 10:38:02.689
126.0, 51493.03245461374, -137780.15378477023, -2028.9796029304987, -187500.02235174447, 90893.77115890637, -187500.02235174447, -187500.02235174447, -187500.02235174447, 0.006, 0.92, -0.352, 192.0, 0.0, 0.0, 0.0, 0.0, 0.0, 0.0, 0.0, 0.0, 0.0, 1.7184658826894727E9, 0.0, 2024-06-15 10:38:02.689
127.0, 53044.914072145715, -135987.43212073232, -667.0207580352734, -187500.02235174447, 92403.25151720662, -187500.02235174447, -187500.02235174447, -187500.02235174447, 0.006, 0.92, -0.352, 192.0, 0.0, 0.0, 0.0, 0.0, 0.0, 0.0, 0.0, 0.0, 0.0, 1.718465882689498E9, 0.0, 2024-06-15 10:38:02.689
128.0, 55517.82167170307, -128942.49754458638, 4078.5004590154244, -187500.02235174447, 95896.76212033775, -187500.02235174447, -187500.02235174447, -187500.02235174447, 0.006, 0.92, -0.352, 192.0, 0.0, 0.0, 0.0, 0.0, 0.0, 0.0, 0.0, 0.0, 0.0, 1.7184658826895137E9, 0.0, 2024-06-15 10:38:02.689
129.0, 54442.63570816943, -129482.51569062659, 3505.2676207146196, -187500.02235174447, 94962.32509163918, -187500.02235174447, -187500.02235174447, -187500.02235174447, 0.006, 0.92, -0.352, 192.0, 0.0, 0.0, 0.0, 0.0, 0.0, 0.0, 0.0, 0.0, 0.0, 1.7184658826895287E9, 0.0, 2024-06-15 10:38:02.689
130.0, 51696.008646012386, -136837.89364551232, -1379.1696881258117, -187500.02235174447, 91267.78289887702, -187500.02235174447, -187500.02235174447, -187500.02235174447, 0.006, 0.92, -0.352, 192.0, 0.0, 0.0, 0.0, 0.0, 0.0, 0.0, 0.0, 0.0, 0.0, 1.7184658826895397E9, 0.0, 2024-06-15 10:38:02.689
131.0, 52502.705455148876, -137136.35648922404, -1373.4029380563425, -187500.02235174447, 91777.24621024683, -187500.02235174447, -187500.02235174447, -187500.02235174447, 0.012, 0.918, -0.356, 192.0, 0.0, 96.0, 28.0, 176.0, 244.0, 224.0, 0.0, 0.0, 0.0, 1.71846588268955E9, 0.0, 2024-06-15 10:38:02.689
132.0, 55326.33427695445, -129780.01740932673, 3610.1643574433756, -187500.02235174447, 95576.97571241566, -187500.02235174447, -187500.02235174447, -187500.02235174447, 0.012, 0.918, -0.356, 192.0, 0.0, 0.0, 0.0, 0.0, 0.0, 0.0, 0.0, 0.0, 0.0, 1.718465882689561E9, 0.0, 2024-06-15 10:38:02.689
133.0, 54887.77069899687, -128607.78017136815, 4213.5944025033, -187500.02235174447, 95532.27222350506, -187500.02235174447, -187500.02235174447, -187500.02235174447, 0.012, 0.918, -0.356, 192.0, 0.0, 0.0, 0.0, 0.0, 0.0, 0.0, 0.0, 0.0, 0.0, 1.718465882689576E9, 0.0, 2024-06-15 10:38:02.689
134.0, 52011.57057423241, -135641.7176892421, -570.0141870992408, -187500.02235174447, 91775.32396022367, -187500.02235174447, -187500.02235174447, -187500.02235174447, 0.012, 0.918, -0.356, 192.0, 0.0, 0.0, 0.0, 0.0, 0.0, 0.0, 0.0, 0.0, 0.0, 1.7184658826895912E9, 0.0, 2024-06-15 10:38:02.689
135.0, 52028.60260350736, -137986.23686864818, -1887.1577843615753, -187500.02235174447, 91268.43109946622, -187500.02235174447, -187500.02235174447, -187500.02235174447, 0.012, 0.918, -0.356, 192.0, 0.0, 0.0, 0.0, 0.0, 0.0, 0.0, 0.0, 0.0, 0.0, 1.7184658826896064E9, 0.0, 2024-06-15 10:38:02.689
136.0, 54926.57332737128, -130981.0660458882, 2848.148685473047, -187500.02235174447, 94999.78661534627, -187500.02235174447, -187500.02235174447, -187500.02235174447, 0.012, 0.918, -0.356, 192.0, 0.0, 0.0, 0.0, 0.0, 0.0, 0.0, 0.0, 0.0, 0.0, 1.7184658826896212E9, 0.0, 2024-06-15 10:38:02.689
137.0, 55205.70191212916, -128122.41204052116, 4639.01515472116, -187500.02235174447, 95896.49389940427, -187500.02235174447, -187500.02235174447, -187500.02235174447, 0.012, 0.918, -0.356, 192.0, 0.0, 0.0, 0.0, 0.0, 0.0, 0.0, 0.0, 0.0, 0.0, 1.7184658826896367E9, 0.0, 2024-06-15 10:38:02.689
138.0, 52429.95052694685, -134290.04064679632, 353.91752170533204, -187500.02235174447, 92390.80159554501, -187500.02235174447, -187500.02235174447, -187500.02235174447, 0.012, 0.918, -0.356, 192.0, 0.0, 0.0, 0.0, 0.0, 0.0, 0.0, 0.0, 0.0, 0.0, 1.718465882689652E9, 0.0, 2024-06-15 10:38:02.689
139.0, 51647.348898333184, -138515.90615700558, -2211.1910237301618, -187500.02235174447, 90884.56224019077, -187500.02235174447, -187500.02235174447, -187500.02235174447, 0.012, 0.918, -0.356, 192.0, 0.0, 0.0, 0.0, 0.0, 0.0, 0.0, 0.0, 0.0, 0.0, 1.7184658826896672E9, 0.0, 2024-06-15 10:38:02.689
140.0, 54469.01076662669, -132295.86270998273, 2017.3119923248282, -187500.02235174447, 94350.17786624169, -187500.02235174447, -187500.02235174447, -187500.02235174447, 0.012, 0.918, -0.356, 192.0, 0.0, 0.0, 0.0, 0.0, 0.0, 0.0, 0.0, 0.0, 0.0, 1.7184658826896813E9, 0.0, 2024-06-15 10:38:02.689
141.0, 55454.342717449996, -127858.70615943744, 4935.019306542791, -187500.02235174447, 96161.76440259986, -187500.02235174447, -187500.02235174447, -187500.02235174447, 0.008, 0.924, -0.354, 192.0, 0.0, 64.0, 28.0, 224.0, 244.0, 240.0, 0.0, 0.0, 0.0, 1.718465882689696E9, 0.0, 2024-06-15 10:38:02.689
142.0, 52956.15529491369, -132792.96550666876, 1419.9169182678365, -187500.02235174447, 93130.28670910439, -187500.02235174447, -187500.02235174447, -187500.02235174447, 0.008, 0.924, -0.354, 192.0, 0.0, 0.0, 0.0, 0.0, 0.0, 0.0, 0.0, 0.0, 0.0, 1.7184658826897056E9, 0.0, 2024-06-15 10:38:02.689
143.0, 51437.22014870884, -138564.81177387378, -2197.154128212229, -187500.02235174447, 90741.80164835474, -187500.02235174447, -187500.02235174447, -187500.02235174447, 0.008, 0.924, -0.354, 192.0, 0.0, 0.0, 0.0, 0.0, 0.0, 0.0, 0.0, 0.0, 0.0, 1.7184658826897151E9, 0.0, 2024-06-15 10:38:02.689
144.0, 53928.32206825281, -133699.46285479818, 1137.2120543971128, -187500.02235174447, 93632.5527587596, -187500.02235174447, -187500.02235174447, -187500.02235174447, 0.008, 0.924, -0.354, 192.0, 0.0, 0.0, 0.0, 0.0, 0.0, 0.0, 0.0, 0.0, 0.0, 1.7184658826897242E9, 0.0, 2024-06-15 10:38:02.689
145.0, 55538.787608002145, -128006.00415539792, 4920.423617413476, -187500.02235174447, 96192.72156867047, -187500.02235174447, -187500.02235174447, -187500.02235174447, 0.008, 0.924, -0.354, 192.0, 0.0, 0.0, 0.0, 0.0, 0.0, 0.0, 0.0, 0.0, 0.0, 1.7184658826897335E9, 0.0, 2024-06-15 10:38:02.689
146.0, 53472.23472264227, -131434.04649901946, 2383.9253048807745, -187500.02235174447, 93825.0459820087, -187500.02235174447, -187500.02235174447, -187500.02235174447, 0.008, 0.924, -0.354, 192.0, 0.0, 0.0, 0.0, 0.0, 0.0, 0.0, 0.0, 0.0, 0.0, 1.7184658826897428E9, 0.0, 2024-06-15 10:38:02.689
147.0, 51347.38848774296, -138278.32946519012, -1998.7153409380128, -187500.02235174447, 90741.53342742127, -187500.02235174447, -187500.02235174447, -187500.02235174447, 0.008, 0.924, -0.354, 192.0, 0.0, 0.0, 0.0, 0.0, 0.0, 0.0, 0.0, 0.0, 0.0, 1.7184658826897516E9, 0.0, 2024-06-15 10:38:02.689
148.0, 53363.13585795592, -135091.887127386, 268.0644712524976, -187500.02235174447, 92903.2823924163, -187500.02235174447, -187500.02235174447, -187500.02235174447, 0.008, 0.924, -0.354, 192.0, 0.0, 0.0, 0.0, 0.0, 0.0, 0.0, 0.0, 0.0, 0.0, 1.7184658826897607E9, 0.0, 2024-06-15 10:38:02.689
149.0, 55539.0111254467, -128399.2607473446, 4751.712650264818, -187500.02235174447, 96106.7344077509, -187500.02235174447, -187500.02235174447, -187500.02235174447, 0.008, 0.924, -0.354, 192.0, 0.0, 0.0, 0.0, 0.0, 0.0, 0.0, 0.0, 0.0, 0.0, 1.71846588268977E9, 0.0, 2024-06-15 10:38:02.689
150.0, 53996.24901965249, -130196.65392597366, 3295.496499001563, -187500.02235174447, 94510.73044666415, -187500.02235174447, -187500.02235174447, -187500.02235174447, 0.008, 0.924, -0.354, 192.0, 0.0, 0.0, 0.0, 0.0, 0.0, 0.0, 0.0, 0.0, 0.0, 1.7184658826897793E9, 0.0, 2024-06-15 10:38:02.689
151.0, 51437.063686497655, -137584.19604113055, -1533.9331667343579, -187500.02235174447, 90965.18498244107, -187500.02235174447, -187500.02235174447, -187500.02235174447, 0.01, 0.922, -0.356, 192.0, 0.0, 80.0, 28.0, 208.0, 244.0, 224.0, 0.0, 0.0, 0.0, 1.7184658826897883E9, 0.0, 2024-06-15 10:38:02.689
152.0, 52795.44625228003, -136387.30482903778, -545.5390269206795, -187500.02235174447, 92208.43371253416, -187500.02235174447, -187500.02235174447, -187500.02235174447, 0.01, 0.922, -0.356, 192.0, 0.0, 0.0, 0.0, 0.0, 0.0, 0.0, 0.0, 0.0, 0.0, 1.7184658826897979E9, 0.0, 2024-06-15 10:38:02.689
153.0, 55400.095033656966, -129132.88970385668, 4324.861386401819, -187500.02235174447, 95825.3706485475, -187500.02235174447, -187500.02235174447, -187500.02235174447, 0.01, 0.922, -0.356, 192.0, 0.0, 0.0, 0.0, 0.0, 0.0, 0.0, 0.0, 0.0, 0.0, 1.7184658826898067E9, 0.0, 2024-06-15 10:38:02.689
154.0, 54509.17685141288, -129144.7808319069, 4105.09903491724, -187500.02235174447, 95151.19733228652, -187500.02235174447, -187500.02235174447, -187500.02235174447, 0.01, 0.922, -0.356, 192.0, 0.0, 0.0, 0.0, 0.0, 0.0, 0.0, 0.0, 0.0, 0.0, 1.718465882689816E9, 0.0, 2024-06-15 10:38:02.689
155.0, 51685.436270885024, -136527.56202549482, -820.7784081433307, -187500.02235174447, 91388.54937416904, -187500.02235174447, -187500.02235174447, -187500.02235174447, 0.01, 0.922, -0.356, 192.0, 0.0, 0.0, 0.0, 0.0, 0.0, 0.0, 0.0, 0.0, 0.0, 1.7184658826898253E9, 0.0, 2024-06-15 10:38:02.689
156.0, 52279.16565885135, -137444.5423417738, -1195.1701277697239, -187500.02235174447, 91612.69266756687, -187500.02235174447, -187500.02235174447, -187500.02235174447, 0.01, 0.922, -0.356, 192.0, 0.0, 0.0, 0.0, 0.0, 0.0, 0.0, 0.0, 0.0, 0.0, 1.7184658826898344E9, 0.0, 2024-06-15 10:38:02.689
157.0, 55138.98195493007, -130103.89418648413, 3746.1300189650083, -187500.02235174447, 95408.264745267, -187500.02235174447, -187500.02235174447, -187500.02235174447, 0.01, 0.922, -0.356, 192.0, 0.0, 0.0, 0.0, 0.0, 0.0, 0.0, 0.0, 0.0, 0.0, 1.7184658826898434E9, 0.0, 2024-06-15 10:38:02.689
158.0, 54933.1670919856, -128374.11503483237, 4735.798208212639, -187500.02235174447, 95665.15334429186, -187500.02235174447, -187500.02235174447, -187500.02235174447, 0.01, 0.922, -0.356, 192.0, 0.0, 0.0, 0.0, 0.0, 0.0, 0.0, 0.0, 0.0, 0.0, 1.7184658826898527E9, 0.0, 2024-06-15 10:38:02.689
159.0, 52097.356569451884, -135171.8616690471, 123.29222241547376, -187500.02235174447, 92006.0610182358, -187500.02235174447, -187500.02235174447, -187500.02235174447, 0.01, 0.922, -0.356, 192.0, 0.0, 0.0, 0.0, 0.0, 0.0, 0.0, 0.0, 0.0, 0.0, 1.718465882689862E9, 0.0, 2024-06-15 10:38:02.689
160.0, 51874.71084293257, -138099.7390269922, -1550.9651960093017, -187500.02235174447, 91216.530348841, -187500.02235174447, -187500.02235174447, -187500.02235174447, 0.01, 0.922, -0.356, 192.0, 0.0, 0.0, 0.0, 0.0, 0.0, 0.0, 0.0, 0.0, 0.0, 1.7184658826898713E9, 0.0, 2024-06-15 10:38:02.689
161.0, 54749.79338047426, -131278.63481982172, 3030.8071411618166, -187500.02235174447, 94863.39627068, -187500.02235174447, -187500.02235174447, -187500.02235174447, 0.01, 0.922, -0.356, 192.0, 0.0, 0.0, 0.0, 0.0, 0.0, 0.0, 0.0, 0.0, 0.0, 1.7184658826898804E9, 0.0, 2024-06-15 10:38:02.689
162.0, 55215.11199654484, -127963.46878569947, 5114.660276730094, -187500.02235174447, 95995.91445874149, -187500.02235174447, -187500.02235174447, -187500.02235174447, 0.006, 0.92, -0.36, 192.0, 0.0, 48.0, 28.0, 192.0, 244.0, 192.0, 0.0, 0.0, 0.0, 1.7184658826898894E9, 0.0, 2024-06-15 10:38:02.689
163.0, 52520.519795479755, -133814.64139397637, 1037.2997566818901, -187500.02235174447, 92623.19268264684, -187500.02235174447, -187500.02235174447, -187500.02235174447, 0.006, 0.92, -0.36, 192.0, 0.0, 0.0, 0.0, 0.0, 0.0, 0.0, 0.0, 0.0, 0.0, 1.7184658826898985E9, 0.0, 2024-06-15 10:38:02.689
164.0, 51504.14127160803, -138564.02946281785, -1855.6641764240476, -187500.02235174447, 90852.57689387523, -187500.02235174447, -187500.02235174447, -187500.02235174447, 0.006, 0.92, -0.36, 192.0, 0.0, 0.0, 0.0, 0.0, 0.0, 0.0, 0.0, 0.0, 0.0, 1.718465882689908E9, 0.0, 2024-06-15 10:38:02.689
165.0, 54266.12398220587, -132653.64708347883, 2161.279578361461, -187500.02235174447, 94189.20060267457, -187500.02235174447, -187500.02235174447, -187500.02235174447, 0.006, 0.92, -0.36, 192.0, 0.0, 0.0, 0.0, 0.0, 0.0, 0.0, 0.0, 0.0, 0.0, 1.718465882689917E9, 0.0, 2024-06-15 10:38:02.689
166.0, 55436.95306026376, -127799.60814709762, 5347.923081865679, -187500.02235174447, 96225.69039174204, -187500.02235174447, -187500.02235174447, -187500.02235174447, 0.006, 0.92, -0.36, 192.0, 0.0, 0.0, 0.0, 0.0, 0.0, 0.0, 0.0, 0.0, 0.0, 1.718465882689926E9, 0.0, 2024-06-15 10:38:02.689
167.0, 53041.31544128841, -132346.31059721837, 2077.5052401429703, -187500.02235174447, 93358.16274382625, -187500.02235174447, -187500.02235174447, -187500.02235174447, 0.006, 0.92, -0.36, 192.0, 0.0, 0.0, 0.0, 0.0, 0.0, 0.0, 0.0, 0.0, 0.0, 1.7184658826899352E9, 0.0, 2024-06-15 10:38:02.689
168.0, 51329.90942357891, -138509.8935377471, -1788.8995157360455, -187500.02235174447, 90753.75983163832, -187500.02235174447, -187500.02235174447, -187500.02235174447, 0.006, 0.92, -0.36, 192.0, 0.0, 0.0, 0.0, 0.0, 0.0, 0.0, 0.0, 0.0, 0.0, 1.7184658826899445E9, 0.0, 2024-06-15 10:38:02.689
169.0, 53700.378978297595, -134078.7496064603, 1268.8191257499607, -187500.02235174447, 93451.8612565829, -187500.02235174447, -187500.02235174447, -187500.02235174447, 0.006, 0.92, -0.36, 192.0, 0.0, 0.0, 0.0, 0.0, 0.0, 0.0, 0.0, 0.0, 0.0, 1.7184658826899533E9, 0.0, 2024-06-15 10:38:02.689
170.0, 55508.41158728738, -128001.37734429567, 5318.128206506754, -187500.02235174447, 96241.76129600541, -187500.02235174447, -187500.02235174447, -187500.02235174447, 0.006, 0.92, -0.36, 192.0, 0.0, 0.0, 0.0, 0.0, 0.0, 0.0, 0.0, 0.0, 0.0, 1.7184658826899626E9, 0.0, 2024-06-15 10:38:02.689
171.0, 53565.82147667665, -131002.43431358748, 3052.1083536277242, -187500.02235174447, 94065.39429013661, -187500.02235174447, -187500.02235174447, -187500.02235174447, 0.006, 0.92, -0.36, 192.0, 0.0, 0.0, 0.0, 0.0, 0.0, 0.0, 0.0, 0.0, 0.0, 1.718465882689972E9, 0.0, 2024-06-15 10:38:02.689
172.0, 51297.812318541095, -138093.6370007559, -1493.5212127591626, -187500.02235174447, 90836.12600995613, -187500.02235174447, -187500.02235174447, -187500.02235174447, 0.004, 0.922, -0.352, 192.0, 0.0, 32.0, 28.0, 208.0, 245.0, 0.0, 0.0, 0.0, 0.0, 1.7184658826899807E9, 0.0, 2024-06-15 10:38:02.689
173.0, 53114.048017745976, -135493.1232921032, 387.691007577301, -187500.02235174447, 92723.82023618463, -187500.02235174447, -187500.02235174447, -187500.02235174447, 0.004, 0.922, -0.352, 192.0, 0.0, 0.0, 0.0, 0.0, 0.0, 0.0, 0.0, 0.0, 0.0, 1.71846588268999E9, 0.0, 2024-06-15 10:38:02.689
174.0, 55421.55270833406, -128598.12421776346, 4990.60809500314, -187500.02235174447, 96049.93862508997, -187500.02235174447, -187500.02235174447, -187500.02235174447, 0.004, 0.922, -0.352, 192.0, 0.0, 0.0, 0.0, 0.0, 0.0, 0.0, 0.0, 0.0, 0.0, 1.718465882689999E9, 0.0, 2024-06-15 10:38:02.689
175.0, 54079.57632298188, -129857.13092769754, 3912.941087834965, -187500.02235174447, 94740.50637966472, -187500.02235174447, -187500.02235174447, -187500.02235174447, 0.004, 0.922, -0.352, 192.0, 0.0, 0.0, 0.0, 0.0, 0.0, 0.0, 0.0, 0.0, 0.0, 1.7184658826900084E9, 0.0, 2024-06-15 10:38:02.690
176.0, 51410.55451757366, -137320.22193911337, -976.8159361858293, -187500.02235174447, 91111.87948130125, -187500.02235174447, -187500.02235174447, -187500.02235174447, 0.004, 0.922, -0.352, 192.0, 0.0, 0.0, 0.0, 0.0, 0.0, 0.0, 0.0, 0.0, 0.0, 1.7184658826900177E9, 0.0, 2024-06-15 10:38:02.690
177.0, 52529.97458338435, -136783.10951985235, -418.58111841453535, -187500.02235174447, 92037.59932966225, -187500.02235174447, -187500.02235174447, -187500.02235174447, 0.004, 0.922, -0.352, 192.0, 0.0, 0.0, 0.0, 0.0, 0.0, 0.0, 0.0, 0.0, 0.0, 1.7184658826900268E9, 0.0, 2024-06-15 10:38:02.690
178.0, 55237.396685766784, -129428.02213764456, 4516.4158363838005, -187500.02235174447, 95736.61187131547, -187500.02235174447, -187500.02235174447, -187500.02235174447, 0.004, 0.922, -0.352, 192.0, 0.0, 0.0, 0.0, 0.0, 0.0, 0.0, 0.0, 0.0, 0.0, 1.718465882690036E9, 0.0, 2024-06-15 10:38:02.690
179.0, 54538.99407851626, -128938.6306927956, 4638.67987855433, -187500.02235174447, 95325.78680822693, -187500.02235174447, -187500.02235174447, -187500.02235174447, 0.004, 0.922, -0.352, 192.0, 0.0, 0.0, 0.0, 0.0, 0.0, 0.0, 0.0, 0.0, 0.0, 1.7184658826900456E9, 0.0, 2024-06-15 10:38:02.690
180.0, 51715.007628799394, -136187.7037510519, -201.38921754231663, -187500.02235174447, 91594.0736644356, -187500.02235174447, -187500.02235174447, -187500.02235174447, 0.004, 0.922, -0.352, 192.0, 0.0, 0.0, 0.0, 0.0, 0.0, 0.0, 0.0, 0.0, 0.0, 1.7184658826900582E9, 0.0, 2024-06-15 10:38:02.690
181.0, 52042.39362983628, -137761.3559676833, -1012.1987476585804, -187500.02235174447, 91481.66674156985, -187500.02235174447, -187500.02235174447, -187500.02235174447, 0.004, 0.922, -0.352, 192.0, 0.0, 0.0, 0.0, 0.0, 0.0, 0.0, 0.0, 0.0, 0.0, 1.7184658826900675E9, 0.0, 2024-06-15 10:38:02.690
182.0, 54937.704496110026, -130500.23531916563, 3861.0850406986524, -187500.02235174447, 95262.62077839623, -187500.02235174447, -187500.02235174447, -187500.02235174447, 0.002, 0.92, -0.35000000000000003, 192.0, 0.0, 16.0, 28.0, 192.0, 245.0, 16.0, 0.0, 0.0, 0.0, 1.71846588269008E9, 0.0, 2024-06-15 10:38:02.690
183.0, 54920.15837671261, -128303.93055724271, 5168.416222145107, -187500.02235174447, 95768.99954903121, -187500.02235174447, -187500.02235174447, -187500.02235174447, 0.002, 0.92, -0.35000000000000003, 192.0, 0.0, 0.0, 0.0, 0.0, 0.0, 0.0, 0.0, 0.0, 0.0, 1.7184658826900895E9, 0.0, 2024-06-15 10:38:02.690
184.0, 52076.30122617498, -134941.21401801278, 616.8857952220196, -187500.02235174447, 92122.80417952588, -187500.02235174447, -187500.02235174447, -187500.02235174447, 0.002, 0.92, -0.35000000000000003, 192.0, 0.0, 0.0, 0.0, 0.0, 0.0, 0.0, 0.0, 0.0, 0.0, 1.718465882690099E9, 0.0, 2024-06-15 10:38:02.690
185.0, 51621.42087476503, -138454.8858946426, -1452.349299472487, -187500.02235174447, 91026.29465178188, -187500.02235174447, -187500.02235174447, -187500.02235174447, 0.002, 0.92, -0.35000000000000003, 192.0, 0.0, 0.0, 0.0, 0.0, 0.0, 0.0, 0.0, 0.0, 0.0, 1.7184658826901083E9, 0.0, 2024-06-15 10:38:02.690
186.0, 54512.12728168098, -131790.5121195927, 3041.5806819892746, -187500.02235174447, 94639.49884647118, -187500.02235174447, -187500.02235174447, -187500.02235174447, 0.002, 0.92, -0.35000000000000003, 192.0, 0.0, 0.0, 0.0, 0.0, 0.0, 0.0, 0.0, 0.0, 0.0, 1.7184658826901207E9, 0.0, 2024-06-15 10:38:02.690
187.0, 55209.50170868656, -127952.49407917191, 5511.3590373228835, -187500.02235174447, 96081.09695686067, -187500.02235174447, -187500.02235174447, -187500.02235174447, 0.002, 0.92, -0.35000000000000003, 192.0, 0.0, 0.0, 0.0, 0.0, 0.0, 0.0, 0.0, 0.0, 0.0, 1.718465882690133E9, 0.0, 2024-06-15 10:38:02.690
188.0, 52591.77715680327, -133434.08059288032, 1668.401261377485, -187500.02235174447, 92853.25918832532, -187500.02235174447, -187500.02235174447, -187500.02235174447, 0.002, 0.92, -0.35000000000000003, 192.0, 0.0, 0.0, 0.0, 0.0, 0.0, 0.0, 0.0, 0.0, 0.0, 1.718465882690143E9, 0.0, 2024-06-15 10:38:02.690
189.0, 51379.68675848088, -138608.464730795, -1506.3958175654195, -187500.02235174447, 90842.45155363699, -187500.02235174447, -187500.02235174447, -187500.02235174447, 0.002, 0.92, -0.35000000000000003, 192.0, 0.0, 0.0, 0.0, 0.0, 0.0, 0.0, 0.0, 0.0, 0.0, 1.7184658826901522E9, 0.0, 2024-06-15 10:38:02.690
190.0, 53997.36660687526, -133143.7761358948, 2184.1901164281508, -187500.02235174447, 93953.21088471543, -187500.02235174447, -187500.02235174447, -187500.02235174447, 0.002, 0.92, -0.35000000000000003, 192.0, 0.0, 0.0, 0.0, 0.0, 0.0, 0.0, 0.0, 0.0, 0.0, 1.7184658826901639E9, 0.0, 2024-06-15 10:38:02.690
191.0, 55351.39058248885, -127940.62530286614, 5604.342294256961, -187500.02235174447, 96201.52815598586, -187500.02235174447, -187500.02235174447, -187500.02235174447, 0.002, 0.92, -0.35000000000000003, 192.0, 0.0, 0.0, 0.0, 0.0, 0.0, 0.0, 0.0, 0.0, 0.0, 1.718465882690186E9, 0.0, 2024-06-15 10:38:02.690
192.0, 53079.31340686243, -132059.73888155687, 2612.4048367029236, -187500.02235174447, 93528.68420227578, -187500.02235174447, -187500.02235174447, -187500.02235174447, 0.006, 0.916, -0.34600000000000003, 192.0, 0.0, 48.0, 28.0, 160.0, 245.0, 48.0, 0.0, 0.0, 0.0, 1.7184658826902125E9, 0.0, 2024-06-15 10:38:02.690
193.0, 51174.18481995879, -138580.72621592597, -1529.4404660988412, -187500.02235174447, 90692.47134834187, -187500.02235174447, -187500.02235174447, -187500.02235174447, 0.006, 0.916, -0.34600000000000003, 192.0, 0.0, 0.0, 0.0, 0.0, 0.0, 0.0, 0.0, 0.0, 0.0, 1.7184658826902287E9, 0.0, 2024-06-15 10:38:02.690
194.0, 53423.887899385445, -134615.1691216432, 1223.2886222945003, -187500.02235174447, 93193.09511102381, -187500.02235174447, -187500.02235174447, -187500.02235174447, 0.006, 0.916, -0.34600000000000003, 192.0, 0.0, 0.0, 0.0, 0.0, 0.0, 0.0, 0.0, 0.0, 0.0, 1.7184658826902475E9, 0.0, 2024-06-15 10:38:02.690
195.0, 55405.25828662614, -128230.4156697292, 5489.56608647896, -187500.02235174447, 96182.81974587677, -187500.02235174447, -187500.02235174447, -187500.02235174447, 0.006, 0.916, -0.34600000000000003, 192.0, 0.0, 0.0, 0.0, 0.0, 0.0, 0.0, 0.0, 0.0, 0.0, 1.7184658826902661E9, 0.0, 2024-06-15 10:38:02.690
196.0, 53651.451009684926, -130695.65662093839, 3600.3295898830406, -187500.02235174447, 94284.03905439842, -187500.02235174447, -187500.02235174447, -187500.02235174447, 0.006, 0.916, -0.34600000000000003, 192.0, 0.0, 0.0, 0.0, 0.0, 0.0, 0.0, 0.0, 0.0, 0.0, 1.7184658826902845E9, 0.0, 2024-06-15 10:38:02.690
197.0, 51252.57238776355, -137916.7005916477, -1065.530009928943, -187500.02235174447, 90916.18995859505, -187500.02235174447, -187500.02235174447, -187500.02235174447, 0.006, 0.916, -0.34600000000000003, 192.0, 0.0, 0.0, 0.0, 0.0, 0.0, 0.0, 0.0, 0.0, 0.0, 1.7184658826903036E9, 0.0, 2024-06-15 10:38:02.690
198.0, 52879.60057015426, -135880.54607874705, 448.0630693510854, -187500.02235174447, 92527.12488497792, -187500.02235174447, -187500.02235174447, -187500.02235174447, 0.006, 0.916, -0.34600000000000003, 192.0, 0.0, 0.0, 0.0, 0.0, 0.0, 0.0, 0.0, 0.0, 0.0, 1.7184658826903207E9, 0.0, 2024-06-15 10:38:02.690
199.0, 55317.19241347223, -128801.61449928458, 5183.749518841448, -187500.02235174447, 95986.01263594779, -187500.02235174447, -187500.02235174447, -187500.02235174447, 0.006, 0.916, -0.34600000000000003, 192.0, 0.0, 0.0, 0.0, 0.0, 0.0, 0.0, 0.0, 0.0, 0.0, 1.7184658826903455E9, 0.0, 2024-06-15 10:38:02.690
200.0, 54150.587815116385, -129581.64567728588, 4426.807692862474, -187500.02235174447, 94917.53219575074, -187500.02235174447, -187500.02235174447, -187500.02235174447, 0.006, 0.916, -0.34600000000000003, 192.0, 0.0, 0.0, 0.0, 0.0, 0.0, 0.0, 0.0, 0.0, 0.0, 1.7184658826903648E9, 0.0, 2024-06-15 10:38:02.690
201.0, 51432.34746841758, -137009.7338568847, -472.202953362817, -187500.02235174447, 91239.23972120759, -187500.02235174447, -187500.02235174447, -187500.02235174447, 0.006, 0.916, -0.34600000000000003, 192.0, 0.0, 0.0, 0.0, 0.0, 0.0, 0.0, 0.0, 0.0, 0.0, 1.7184658826903837E9, 0.0, 2024-06-15 10:38:02.690
202.0, 52337.86133979099, -137054.57145626206, -299.98276233467607, -187500.02235174447, 91871.57057184823, -187500.02235174447, -187500.02235174447, -187500.02235174447, 0.006, 0.916, -0.34600000000000003, 192.0, 0.0, 0.0, 0.0, 0.0, 0.0, 0.0, 0.0, 0.0, 0.0, 1.7184658826904013E9, 0.0, 2024-06-15 10:38:02.690
203.0, 55118.50775700901, -129674.33836154203, 4648.559349603575, -187500.02235174447, 95620.15928270332, -187500.02235174447, -187500.02235174447, -187500.02235174447, 0.006, 0.91, -0.35000000000000003, 192.0, 0.0, 48.0, 28.0, 112.0, 245.0, 16.0, 0.0, 0.0, 0.0, 1.7184658826904187E9, 0.0, 2024-06-15 10:38:02.690
204.0, 54637.67703028644, -128640.43607001736, 5165.063460476811, -187500.02235174447, 95512.80385408449, -187500.02235174447, -187500.02235174447, -187500.02235174447, 0.006, 0.91, -0.35000000000000003, 192.0, 0.0, 0.0, 0.0, 0.0, 0.0, 0.0, 0.0, 0.0, 0.0, 1.7184658826904368E9, 0.0, 2024-06-15 10:38:02.690
205.0, 51750.14457108314, -135805.69008656623, 318.9817451216871, -187500.02235174447, 91734.84495101511, -187500.02235174447, -187500.02235174447, -187500.02235174447, 0.006, 0.91, -0.35000000000000003, 192.0, 0.0, 0.0, 0.0, 0.0, 0.0, 0.0, 0.0, 0.0, 0.0, 1.7184658826904545E9, 0.0, 2024-06-15 10:38:02.690
206.0, 51841.65261288317, -137976.29034236557, -898.2048509365143, -187500.02235174447, 91310.85471044239, -187500.02235174447, -187500.02235174447, -187500.02235174447, 0.006, 0.91, -0.35000000000000003, 192.0, 0.0, 0.0, 0.0, 0.0, 0.0, 0.0, 0.0, 0.0, 0.0, 1.7184658826904733E9, 0.0, 2024-06-15 10:38:02.690
207.0, 54780.9293605005, -130797.13354076548, 3936.6339369575903, -187500.02235174447, 95099.11776770565, -187500.02235174447, -187500.02235174447, -187500.02235174447, 0.006, 0.91, -0.35000000000000003, 192.0, 0.0, 0.0, 0.0, 0.0, 0.0, 0.0, 0.0, 0.0, 0.0, 1.7184658826904893E9, 0.0, 2024-06-15 10:38:02.690
208.0, 54978.09409834076, -128089.97965931651, 5615.16053857333, -187500.02235174447, 95902.37240819602, -187500.02235174447, -187500.02235174447, -187500.02235174447, 0.006, 0.91, -0.35000000000000003, 192.0, 0.0, 0.0, 0.0, 0.0, 0.0, 0.0, 0.0, 0.0, 0.0, 1.7184658826905036E9, 0.0, 2024-06-15 10:38:02.690
209.0, 52169.99973893163, -134448.69332894008, 1215.2866977795004, -187500.02235174447, 92335.99511814059, -187500.02235174447, -187500.02235174447, -187500.02235174447, 0.006, 0.91, -0.35000000000000003, 192.0, 0.0, 0.0, 0.0, 0.0, 0.0, 0.0, 0.0, 0.0, 0.0, 1.718465882690516E9, 0.0, 2024-06-15 10:38:02.690
210.0, 51453.492218672305, -138545.9469015535, -1271.8589629958824, -187500.02235174447, 90903.53887123334, -187500.02235174447, -187500.02235174447, -187500.02235174447, 0.006, 0.91, -0.35000000000000003, 192.0, 0.0, 0.0, 0.0, 0.0, 0.0, 0.0, 0.0, 0.0, 0.0, 1.7184658826905296E9, 0.0, 2024-06-15 10:38:02.690
211.0, 54305.150128024834, -132156.454879815, 3040.3736877886877, -187500.02235174447, 94419.20005311967, -187500.02235174447, -187500.02235174447, -187500.02235174447, 0.006, 0.91, -0.35000000000000003, 192.0, 0.0, 0.0, 0.0, 0.0, 0.0, 0.0, 0.0, 0.0, 0.0, 1.7184658826905448E9, 0.0, 2024-06-15 10:38:02.690
212.0, 55217.905964601756, -127843.86460111912, 5858.816904880632, -187500.02235174447, 96150.94615828349, -187500.02235174447, -187500.02235174447, -187500.02235174447, 0.006, 0.91, -0.35000000000000003, 192.0, 0.0, 0.0, 0.0, 0.0, 0.0, 0.0, 0.0, 0.0, 0.0, 1.7184658826905591E9, 0.0, 2024-06-15 10:38:02.690
213.0, 52672.04227114228, -132966.4373953864, 2228.7818466164886, -187500.02235174447, 93053.6649291116, -187500.02235174447, -187500.02235174447, -187500.02235174447, 0.008, 0.914, -0.34800000000000003, 192.0, 0.0, 64.0, 28.0, 144.0, 245.0, 32.0, 0.0, 0.0, 0.0, 1.7184658826905804E9, 0.0, 2024-06-15 10:38:02.690
214.0, 51217.65896292436, -138629.56477756082, -1313.1873384937453, -187500.02235174447, 90739.20884599791, -187500.02235174447, -187500.02235174447, -187500.02235174447, 0.008, 0.914, -0.34800000000000003, 192.0, 0.0, 0.0, 0.0, 0.0, 0.0, 0.0, 0.0, 0.0, 0.0, 1.7184658826905968E9, 0.0, 2024-06-15 10:38:02.690
215.0, 53782.47693568194, -133507.77429434948, 2179.563305325902, -187500.02235174447, 93734.4767134758, -187500.02235174447, -187500.02235174447, -187500.02235174447, 0.008, 0.914, -0.34800000000000003, 192.0, 0.0, 0.0, 0.0, 0.0, 0.0, 0.0, 0.0, 0.0, 0.0, 1.7184658826906128E9, 0.0, 2024-06-15 10:38:02.690
216.0, 55340.41587596129, -127891.33970634219, 5903.900373446986, -187500.02235174447, 96238.40853433711, -187500.02235174447, -187500.02235174447, -187500.02235174447, 0.008, 0.914, -0.34800000000000003, 192.0, 0.0, 0.0, 0.0, 0.0, 0.0, 0.0, 0.0, 0.0, 0.0, 1.7184658826906316E9, 0.0, 2024-06-15 10:38:02.690
217.0, 53184.88069592485, -131575.66715188828, 3184.2742185919547, -187500.02235174447, 93747.06074560413, -187500.02235174447, -187500.02235174447, -187500.02235174447, 0.008, 0.914, -0.34800000000000003, 192.0, 0.0, 0.0, 0.0, 0.0, 0.0, 0.0, 0.0, 0.0, 0.0, 1.7184658826906502E9, 0.0, 2024-06-15 10:38:02.690
218.0, 51104.80500516952, -138388.0541787212, -1182.5413921524755, -187500.02235174447, 90703.1107787026, -187500.02235174447, -187500.02235174447, -187500.02235174447, 0.008, 0.914, -0.34800000000000003, 192.0, 0.0, 0.0, 0.0, 0.0, 0.0, 0.0, 0.0, 0.0, 0.0, 1.7184658826906693E9, 0.0, 2024-06-15 10:38:02.690
219.0, 53188.59108550443, -134971.2547625607, 1209.7881686434948, -187500.02235174447, 92950.42222147253, -187500.02235174447, -187500.02235174447, -187500.02235174447, 0.008, 0.914, -0.34800000000000003, 192.0, 0.0, 0.0, 0.0, 0.0, 0.0, 0.0, 0.0, 0.0, 0.0, 1.7184658826906831E9, 0.0, 2024-06-15 10:38:02.690
220.0, 55310.553945369, -128362.11214805987, 5617.3063060410395, -187500.02235174447, 96082.81804118372, -187500.02235174447, -187500.02235174447, -187500.02235174447, 0.008, 0.914, -0.34800000000000003, 192.0, 0.0, 0.0, 0.0, 0.0, 0.0, 0.0, 0.0, 0.0, 0.0, 1.718465882690698E9, 0.0, 2024-06-15 10:38:02.690
221.0, 53725.457635576444, -130345.00245392353, 4051.6560139246008, -187500.02235174447, 94420.31764034244, -187500.02235174447, -187500.02235174447, -187500.02235174447, 0.008, 0.914, -0.34800000000000003, 192.0, 0.0, 0.0, 0.0, 0.0, 0.0, 0.0, 0.0, 0.0, 0.0, 1.7184658826907165E9, 0.0, 2024-06-15 10:38:02.690
222.0, 51202.90681158386, -137723.38035385375, -760.383994625091, -187500.02235174447, 90909.84206316974, -187500.02235174447, -187500.02235174447, -187500.02235174447, 0.008, 0.914, -0.34800000000000003, 192.0, 0.0, 0.0, 0.0, 0.0, 0.0, 0.0, 0.0, 0.0, 0.0, 1.7184658826907372E9, 0.0, 2024-06-15 10:38:02.690
223.0, 52630.26686075531, -136306.7714937653, 345.2450448566729, -187500.02235174447, 92236.57455880339, -187500.02235174447, -187500.02235174447, -187500.02235174447, 0.002, 0.918, -0.34600000000000003, 192.0, 0.0, 16.0, 28.0, 176.0, 245.0, 48.0, 0.0, 0.0, 0.0, 1.718465882690758E9, 0.0, 2024-06-15 10:38:02.690
224.0, 55212.60860116585, -129046.32139758128, 5216.740693657482, -187500.02235174447, 95841.28509059967, -187500.02235174447, -187500.02235174447, -187500.02235174447, 0.002, 0.918, -0.34600000000000003, 192.0, 0.0, 0.0, 0.0, 0.0, 0.0, 0.0, 0.0, 0.0, 0.0, 1.7184658826907732E9, 0.0, 2024-06-15 10:38:02.690
225.0, 54264.1570286938, -129227.63874860272, 4900.619971826073, -187500.02235174447, 95097.82136652725, -187500.02235174447, -187500.02235174447, -187500.02235174447, 0.002, 0.918, -0.34600000000000003, 192.0, 0.0, 0.0, 0.0, 0.0, 0.0, 0.0, 0.0, 0.0, 0.0, 1.7184658826907883E9, 0.0, 2024-06-15 10:38:02.690
226.0, 51452.46403842736, -136667.77451846297, -56.23698904955257, -187500.02235174447, 91332.1559229083, -187500.02235174447, -187500.02235174447, -187500.02235174447, 0.002, 0.918, -0.34600000000000003, 192.0, 0.0, 0.0, 0.0, 0.0, 0.0, 0.0, 0.0, 0.0, 0.0, 1.7184658826908045E9, 0.0, 2024-06-15 10:38:02.690
227.0, 52114.12037779336, -137376.66009386303, -324.1673498353183, -187500.02235174447, 91633.97152828831, -187500.02235174447, -187500.02235174447, -187500.02235174447, 0.002, 0.918, -0.34600000000000003, 192.0, 0.0, 0.0, 0.0, 0.0, 0.0, 0.0, 0.0, 0.0, 0.0, 1.718465882690827E9, 0.0, 2024-06-15 10:38:02.690
228.0, 54967.99110984697, -129990.59319384018, 4642.256157667179, -187500.02235174447, 95433.36575429032, -187500.02235174447, -187500.02235174447, -187500.02235174447, 0.002, 0.918, -0.34600000000000003, 192.0, 0.0, 0.0, 0.0, 0.0, 0.0, 0.0, 0.0, 0.0, 0.0, 1.718465882690846E9, 0.0, 2024-06-15 10:38:02.690
229.0, 54700.10545255011, -128417.4103638423, 5542.271499904573, -187500.02235174447, 95622.1262362154, -187500.02235174447, -187500.02235174447, -187500.02235174447, 0.002, 0.918, -0.34600000000000003, 192.0, 0.0, 0.0, 0.0, 0.0, 0.0, 0.0, 0.0, 0.0, 0.0, 1.718465882690864E9, 0.0, 2024-06-15 10:38:02.690
230.0, 51815.56812710383, -135392.29457286533, 796.0126752868504, -187500.02235174447, 91880.01953125233, -187500.02235174447, -187500.02235174447, -187500.02235174447, 0.002, 0.918, -0.34600000000000003, 192.0, 0.0, 0.0, 0.0, 0.0, 0.0, 0.0, 0.0, 0.0, 0.0, 1.7184658826908817E9, 0.0, 2024-06-15 10:38:02.690
231.0, 51670.23708465542, -138165.22963824627, -815.7716173853419, -187500.02235174447, 91148.87161837479, -187500.02235174447, -187500.02235174447, -187500.02235174447, 0.002, 0.918, -0.34600000000000003, 192.0, 0.0, 0.0, 0.0, 0.0, 0.0, 0.0, 0.0, 0.0, 0.0, 1.718465882690901E9, 0.0, 2024-06-15 10:38:02.690
232.0, 54593.264114053745, -131167.99368476792, 3892.5115934028145, -187500.02235174447, 94878.26018074277, -187500.02235174447, -187500.02235174447, -187500.02235174447, 0.002, 0.918, -0.34600000000000003, 192.0, 0.0, 0.0, 0.0, 0.0, 0.0, 0.0, 0.0, 0.0, 0.0, 1.7184658826909194E9, 0.0, 2024-06-15 10:38:02.690
233.0, 55006.81608996583, -127970.26371601388, 5923.860481245575, -187500.02235174447, 95967.5053915388, -187500.02235174447, -187500.02235174447, -187500.02235174447, 0.002, 0.92, -0.35000000000000003, 192.0, 0.0, 16.0, 28.0, 192.0, 245.0, 16.0, 0.0, 0.0, 0.0, 1.7184658826909368E9, 0.0, 2024-06-15 10:38:02.690
234.0, 52266.112240089446, -133977.54090756667, 1742.5196459912834, -187500.02235174447, 92531.50582689117, -187500.02235174447, -187500.02235174447, -187500.02235174447, 0.002, 0.92, -0.35000000000000003, 192.0, 0.0, 0.0, 0.0, 0.0, 0.0, 0.0, 0.0, 0.0, 0.0, 1.7184658826909547E9, 0.0, 2024-06-15 10:38:02.690
235.0, 51322.198071741834, -138589.6669137081, -1083.657274682197, -187500.02235174447, 90826.67122205153, -187500.02235174447, -187500.02235174447, -187500.02235174447, 0.002, 0.92, -0.35000000000000003, 192.0, 0.0, 0.0, 0.0, 0.0, 0.0, 0.0, 0.0, 0.0, 0.0, 1.718465882690973E9, 0.0, 2024-06-15 10:38:02.690
236.0, 54121.016457202015, -132493.7203519011, 3041.468923266998, -187500.02235174447, 94231.8924345842, -187500.02235174447, -187500.02235174447, -187500.02235174447, 0.002, 0.92, -0.35000000000000003, 192.0, 0.0, 0.0, 0.0, 0.0, 0.0, 0.0, 0.0, 0.0, 0.0, 1.71846588269099E9, 0.0, 2024-06-15 10:38:02.690
237.0, 55220.901098358765, -127779.58098406566, 6137.252585560392, -187500.02235174447, 96195.87316463866, -187500.02235174447, -187500.02235174447, -187500.02235174447, 0.002, 0.92, -0.35000000000000003, 192.0, 0.0, 0.0, 0.0, 0.0, 0.0, 0.0, 0.0, 0.0, 0.0, 1.7184658826910088E9, 0.0, 2024-06-15 10:38:02.691
238.0, 52780.02354860587, -132497.56485194742, 2749.73395463633, -187500.02235174447, 93252.57310301937, -187500.02235174447, -187500.02235174447, -187500.02235174447, 0.002, 0.92, -0.35000000000000003, 192.0, 0.0, 0.0, 0.0, 0.0, 0.0, 0.0, 0.0, 0.0, 0.0, 1.7184658826910248E9, 0.0, 2024-06-15 10:38:02.691
239.0, 51123.7145809787, -138570.17619254306, -1071.0061873204932, -187500.02235174447, 90699.33333388965, -187500.02235174447, -187500.02235174447, -187500.02235174447, 0.002, 0.92, -0.35000000000000003, 192.0, 0.0, 0.0, 0.0, 0.0, 0.0, 0.0, 0.0, 0.0, 0.0, 1.7184658826910417E9, 0.0, 2024-06-15 10:38:02.691
240.0, 53558.87008415104, -133906.1494357764, 2123.259261042984, -187500.02235174447, 93496.14006234886, -187500.02235174447, -187500.02235174447, -187500.02235174447, 0.002, 0.92, -0.35000000000000003, 192.0, 0.0, 0.0, 0.0, 0.0, 0.0, 0.0, 0.0, 0.0, 0.0, 1.7184658826910582E9, 0.0, 2024-06-15 10:38:02.691
241.0, 55293.58897132742, -127935.93143653053, 6093.510221661356, -187500.02235174447, 96217.46494978249, -187500.02235174447, -187500.02235174447, -187500.02235174447, 0.002, 0.92, -0.35000000000000003, 192.0, 0.0, 0.0, 0.0, 0.0, 0.0, 0.0, 0.0, 0.0, 0.0, 1.718465883169701E9, 0.0, 2024-06-15 10:38:03.169
242.0, 53323.30504933656, -131079.86075638066, 3734.373001381517, -187500.02235174447, 93982.40226297406, -187500.02235174447, -187500.02235174447, -187500.02235174447, 0.002, 0.92, -0.35000000000000003, 192.0, 0.0, 0.0, 0.0, 0.0, 0.0, 0.0, 0.0, 0.0, 0.0, 1.718465883169845E9, 0.0, 2024-06-15 10:38:03.169
243.0, 51108.87302266038, -138105.4387218283, -768.1400499510825, -187500.02235174447, 90800.11734963863, -187500.02235174447, -187500.02235174447, -187500.02235174447, 0.002, 0.92, -0.35000000000000003, 192.0, 0.0, 0.0, 0.0, 0.0, 0.0, 0.0, 0.0, 0.0, 0.0, 1.7184658831698608E9, 0.0, 2024-06-15 10:38:03.169
244.0, 53001.39522569123, -135261.89449571306, 1256.682128510729, -187500.02235174447, 92785.86867879257, -187500.02235174447, -187500.02235174447, -187500.02235174447, 0.012, 0.92, -0.34800000000000003, 192.0, 0.0, 96.0, 28.0, 192.0, 245.0, 32.0, 0.0, 0.0, 0.0, 1.7184658831698716E9, 0.0, 2024-06-15 10:38:03.169
245.0, 55257.44620054319, -128411.08482016144, 5822.160043973929, -187500.02235174447, 96068.75879392133, -187500.02235174447, -187500.02235174447, -187500.02235174447, 0.012, 0.92, -0.34800000000000003, 192.0, 0.0, 0.0, 0.0, 0.0, 0.0, 0.0, 0.0, 0.0, 0.0, 1.718465883169882E9, 0.0, 2024-06-15 10:38:03.169
246.0, 53861.311538375805, -129830.55470354018, 4628.934517971816, -187500.02235174447, 94675.41809981086, -187500.02235174447, -187500.02235174447, -187500.02235174447, 0.012, 0.92, -0.34800000000000003, 192.0, 0.0, 0.0, 0.0, 0.0, 0.0, 0.0, 0.0, 0.0, 0.0, 1.718465883169907E9, 0.0, 2024-06-15 10:38:03.169
247.0, 51223.58217520502, -137299.5018720033, -265.33755842895016, -187500.02235174447, 91058.99525392, -187500.02235174447, -187500.02235174447, -187500.02235174447, 0.012, 0.92, -0.34800000000000003, 192.0, 0.0, 0.0, 0.0, 0.0, 0.0, 0.0, 0.0, 0.0, 0.0, 1.7184658831699164E9, 0.0, 2024-06-15 10:38:03.169
248.0, 52416.18185236238, -136547.94681643805, 404.7900920856109, -187500.02235174447, 92065.20373406455, -187500.02235174447, -187500.02235174447, -187500.02235174447, 0.012, 0.92, -0.34800000000000003, 192.0, 0.0, 0.0, 0.0, 0.0, 0.0, 0.0, 0.0, 0.0, 0.0, 1.7184658831699257E9, 0.0, 2024-06-15 10:38:03.169
249.0, 55099.21820154408, -129167.06552112884, 5351.097029578332, -187500.02235174447, 95759.6565198489, -187500.02235174447, -187500.02235174447, -187500.02235174447, 0.012, 0.92, -0.34800000000000003, 192.0, 0.0, 0.0, 0.0, 0.0, 0.0, 0.0, 0.0, 0.0, 0.0, 1.7184658831699347E9, 0.0, 2024-06-15 10:38:03.169
250.0, 54355.55331177155, -128804.67668827495, 5388.379739329785, -187500.02235174447, 95281.77622339442, -187500.02235174447, -187500.02235174447, -187500.02235174447, 0.012, 0.92, -0.34800000000000003, 192.0, 0.0, 0.0, 0.0, 0.0, 0.0, 0.0, 0.0, 0.0, 0.0, 1.7184658831699438E9, 0.0, 2024-06-15 10:38:03.169
251.0, 51494.462966258885, -136193.2469836768, 430.785170887133, -187500.02235174447, 91475.43060486682, -187500.02235174447, -187500.02235174447, -187500.02235174447, 0.012, 0.92, -0.34800000000000003, 192.0, 0.0, 0.0, 0.0, 0.0, 0.0, 0.0, 0.0, 0.0, 0.0, 1.7184658831699529E9, 0.0, 2024-06-15 10:38:03.169
252.0, 51909.42310207166, -137576.55174452683, -270.47845965367077, -187500.02235174447, 91456.76689824664, -187500.02235174447, -187500.02235174447, -187500.02235174447, 0.012, 0.92, -0.34800000000000003, 192.0, 0.0, 0.0, 0.0, 0.0, 0.0, 0.0, 0.0, 0.0, 0.0, 1.7184658831699617E9, 0.0, 2024-06-15 10:38:03.169
253.0, 54804.15282298956, -130230.38270835672, 4657.231826452235, -187500.02235174447, 95264.05129004137, -187500.02235174447, -187500.02235174447, -187500.02235174447, 0.012, 0.92, -0.34800000000000003, 192.0, 0.0, 0.0, 0.0, 0.0, 0.0, 0.0, 0.0, 0.0, 0.0, 1.7184658831699705E9, 0.0, 2024-06-15 10:38:03.169
254.0, 54744.09368563815, -128132.96206390407, 5903.766262980254, -187500.02235174447, 95724.47487407624, -187500.02235174447, -187500.02235174447, -187500.02235174447, 0.01, 0.922, -0.34800000000000003, 192.0, 0.0, 80.0, 28.0, 208.0, 245.0, 32.0, 0.0, 0.0, 0.0, 1.718465883169979E9, 0.0, 2024-06-15 10:38:03.169
255.0, 51893.12868036374, -134847.89548491186, 1309.5663558919855, -187500.02235174447, 92058.94524561707, -187500.02235174447, -187500.02235174447, -187500.02235174447, 0.01, 0.922, -0.34800000000000003, 192.0, 0.0, 0.0, 0.0, 0.0, 0.0, 0.0, 0.0, 0.0, 0.0, 1.718465883169988E9, 0.0, 2024-06-15 10:38:03.169
0.0, 51494.99940812581, -138249.16043867593, -705.1304823315719, -187500.02235174447, 91011.81072137484, -187500.02235174447, -187500.02235174447, -187500.02235174447, 0.01, 0.922, -0.34800000000000003, 192.0, 0.0, 0.0, 0.0, 0.0, 0.0, 0.0, 0.0, 0.0, 0.0, 1.7184658831699967E9, 0.0, 2024-06-15 10:38:03.169
1.0, 54393.61833257894, -131464.3778162453, 3858.7604592753005, -187500.02235174447, 94665.53862876161, -187500.02235174447, -187500.02235174447, -187500.02235174447, 0.01, 0.922, -0.34800000000000003, 192.0, 0.0, 0.0, 0.0, 0.0, 0.0, 0.0, 0.0, 0.0, 0.0, 1.718465883170006E9, 0.0, 2024-06-15 10:38:03.170
2.0, 55016.67320927062, -127769.47799557185, 6215.32722894278, -187500.02235174447, 96015.62869735107, -187500.02235174447, -187500.02235174447, -187500.02235174447, 0.01, 0.922, -0.34800000000000003, 192.0, 0.0, 0.0, 0.0, 0.0, 0.0, 0.0, 0.0, 0.0, 0.0, 1.7184658831700149E9, 0.0, 2024-06-15 10:38:03.170
3.0, 52376.55220944312, -133383.65505738914, 2280.9508181751753, -187500.02235174447, 92732.0903816331, -187500.02235174447, -187500.02235174447, -187500.02235174447, 0.01, 0.922, -0.34800000000000003, 192.0, 0.0, 0.0, 0.0, 0.0, 0.0, 0.0, 0.0, 0.0, 0.0, 1.7184658831700237E9, 0.0, 2024-06-15 10:38:03.170
4.0, 51191.954456800755, -138524.98096525442, -895.7908625353411, -187500.02235174447, 90735.43140118496, -187500.02235174447, -187500.02235174447, -187500.02235174447, 0.01, 0.922, -0.34800000000000003, 192.0, 0.0, 0.0, 0.0, 0.0, 0.0, 0.0, 0.0, 0.0, 0.0, 1.7184658831700323E9, 0.0, 2024-06-15 10:38:03.170
5.0, 53886.837230543766, -132846.18501021684, 2946.094029676203, -187500.02235174447, 93961.7268993529, -187500.02235174447, -187500.02235174447, -187500.02235174447, 0.01, 0.922, -0.34800000000000003, 192.0, 0.0, 0.0, 0.0, 0.0, 0.0, 0.0, 0.0, 0.0, 0.0, 1.7184658831700408E9, 0.0, 2024-06-15 10:38:03.170
6.0, 55184.8253828079, -127697.41597144795, 6333.344439666801, -187500.02235174447, 96169.00636780339, -187500.02235174447, -187500.02235174447, -187500.02235174447, 0.01, 0.922, -0.34800000000000003, 192.0, 0.0, 0.0, 0.0, 0.0, 0.0, 0.0, 0.0, 0.0, 0.0, 1.7184658831700497E9, 0.0, 2024-06-15 10:38:03.170
7.0, 52897.61607618524, -131929.80819103817, 3269.1884957776665, -187500.02235174447, 93448.39673619233, -187500.02235174447, -187500.02235174447, -187500.02235174447, 0.01, 0.922, -0.34800000000000003, 192.0, 0.0, 0.0, 0.0, 0.0, 0.0, 0.0, 0.0, 0.0, 0.0, 1.7184658831700585E9, 0.0, 2024-06-15 10:38:03.170
8.0, 51068.28225472954, -138368.74227151184, -795.8785648201185, -187500.02235174447, 90683.7541680043, -187500.02235174447, -187500.02235174447, -187500.02235174447, 0.006, 0.93, -0.352, 192.0, 0.0, 48.0, 29.0, 16.0, 245.0, 0.0, 0.0, 0.0, 0.0, 1.7184658831700673E9, 0.0, 2024-06-15 10:38:03.170
9.0, 53356.11741019695, -134233.26721587984, 2060.1602864456518, -187500.02235174447, 93251.67903324116, -187500.02235174447, -187500.02235174447, -187500.02235174447, 0.006, 0.93, -0.352, 192.0, 0.0, 0.0, 0.0, 0.0, 0.0, 0.0, 0.0, 0.0, 0.0, 1.718465883170076E9, 0.0, 2024-06-15 10:38:03.170
10.0, 55265.33636633592, -127929.89646552759, 6251.425296238101, -187500.02235174447, 96172.91792308306, -187500.02235174447, -187500.02235174447, -187500.02235174447, 0.006, 0.93, -0.352, 192.0, 0.0, 0.0, 0.0, 0.0, 0.0, 0.0, 0.0, 0.0, 0.0, 1.7184658831700847E9, 0.0, 2024-06-15 10:38:03.170
11.0, 53472.59235055356, -130530.96896779168, 4260.622472837266, -187500.02235174447, 94202.49989062548, -187500.02235174447, -187500.02235174447, -187500.02235174447, 0.006, 0.93, -0.352, 192.0, 0.0, 0.0, 0.0, 0.0, 0.0, 0.0, 0.0, 0.0, 0.0, 1.7184658831700933E9, 0.0, 2024-06-15 10:38:03.170
12.0, 51107.88954590435, -137777.56098241342, -417.21766200276164, -187500.02235174447, 90848.06184149526, -187500.02235174447, -187500.02235174447, -187500.02235174447, 0.006, 0.93, -0.352, 192.0, 0.0, 0.0, 0.0, 0.0, 0.0, 0.0, 0.0, 0.0, 0.0, 1.718465883170102E9, 0.0, 2024-06-15 10:38:03.170
13.0, 52797.79318544784, -135564.58181912682, 1201.8309476174054, -187500.02235174447, 92546.30268172058, -187500.02235174447, -187500.02235174447, -187500.02235174447, 0.006, 0.93, -0.352, 192.0, 0.0, 0.0, 0.0, 0.0, 0.0, 0.0, 0.0, 0.0, 0.0, 1.7184658831701107E9, 0.0, 2024-06-15 10:38:03.170
14.0, 55201.99152254958, -128459.38693992936, 5953.856522304598, -187500.02235174447, 96004.13990070105, -187500.02235174447, -187500.02235174447, -187500.02235174447, 0.006, 0.93, -0.352, 192.0, 0.0, 0.0, 0.0, 0.0, 0.0, 0.0, 0.0, 0.0, 0.0, 1.7184658831701193E9, 0.0, 2024-06-15 10:38:03.170
15.0, 53990.66108353867, -129342.77258429202, 5126.819625713781, -187500.02235174447, 94878.19312550941, -187500.02235174447, -187500.02235174447, -187500.02235174447, 0.006, 0.93, -0.352, 192.0, 0.0, 0.0, 0.0, 0.0, 0.0, 0.0, 0.0, 0.0, 0.0, 1.718465883170128E9, 0.0, 2024-06-15 10:38:03.170
16.0, 51301.0086179982, -136823.297956383, 199.55637449698145, -187500.02235174447, 91196.21261313112, -187500.02235174447, -187500.02235174447, -187500.02235174447, 0.006, 0.93, -0.352, 192.0, 0.0, 0.0, 0.0, 0.0, 0.0, 0.0, 0.0, 0.0, 0.0, 1.7184658831701367E9, 0.0, 2024-06-15 10:38:03.170
17.0, 52287.12287987744, -136663.61709399428, 520.1027417305401, -187500.02235174447, 91940.83862791522, -187500.02235174447, -187500.02235174447, -187500.02235174447, 0.006, 0.93, -0.352, 192.0, 0.0, 0.0, 0.0, 0.0, 0.0, 0.0, 0.0, 0.0, 0.0, 1.7184658831701455E9, 0.0, 2024-06-15 10:38:03.170
18.0, 55044.81405553986, -129201.88953899022, 5529.866281731878, -187500.02235174447, 95717.83640597301, -187500.02235174447, -187500.02235174447, -187500.02235174447, 0.004, 0.926, -0.35000000000000003, 192.0, 0.0, 32.0, 28.0, 240.0, 245.0, 16.0, 0.0, 0.0, 0.0, 1.718465883170154E9, 0.0, 2024-06-15 10:38:03.170
19.0, 54487.04862440212, -128315.70992657065, 5930.02956271524, -187500.02235174447, 95515.53076690802, -187500.02235174447, -187500.02235174447, -187500.02235174447, 0.004, 0.926, -0.35000000000000003, 192.0, 0.0, 0.0, 0.0, 0.0, 0.0, 0.0, 0.0, 0.0, 0.0, 1.718465883170163E9, 0.0, 2024-06-15 10:38:03.170
20.0, 51632.44028478149, -135544.42054562815, 1061.0149575489709, -187500.02235174447, 91733.88382600354, -187500.02235174447, -187500.02235174447, -187500.02235174447, 0.004, 0.926, -0.35000000000000003, 192.0, 0.0, 0.0, 0.0, 0.0, 0.0, 0.0, 0.0, 0.0, 0.0, 1.7184658831701715E9, 0.0, 2024-06-15 10:38:03.170
21.0, 51797.95495247304, -137553.0600611043, -41.59659643132645, -187500.02235174447, 91401.71455165322, -187500.02235174447, -187500.02235174447, -187500.02235174447, 0.004, 0.926, -0.35000000000000003, 192.0, 0.0, 0.0, 0.0, 0.0, 0.0, 0.0, 0.0, 0.0, 0.0, 1.7184658831701803E9, 0.0, 2024-06-15 10:38:03.170
