%OpenBCI Raw EXG Data
%Number of channels = 8
%Sample Rate = 250 Hz
%Board = OpenBCI_GUI$BoardCytonSerial
Sample Index, EXG Channel 0, EXG Channel 1, EXG Channel 2, EXG Channel 3, EXG Channel 4, EXG Channel 5, EXG Channel 6, EXG Channel 7, Accel Channel 0, Accel Channel 1, Accel Channel 2, Other, Other, Other, Other, Other, Other, Other, Analog Channel 0, Analog Channel 1, Analog Channel 2, Timestamp, Other, Timestamp (Formatted)
0.0, -102900.01069307455, -39044.58600814176, 19056.605584216784, -85933.24851194007, 52521.32445828014, -160495.2258461983, -114414.46714573707, -187500.02235174447, -0.082, 0.484, -0.028, 192.0, 253.0, 112.0, 15.0, 32.0, 255.0, 32.0, 0.0, 0.0, 0.0, 1.7184655256435473E9, 0.0, 2024-06-15 10:32:05.643
1.0, -105150.96547019071, -42443.63813920476, 17087.14867677077, -87280.32109502806, 50714.074160346296, -161492.15835239392, -115436.61241967826, -187500.02235174447, -0.082, 0.484, -0.028, 192.0, 0.0, 0.0, 0.0, 0.0, 0.0, 0.0, 0.0, 0.0, 0.0, 1.7184655256437154E9, 0.0, 2024-06-15 10:32:05.643
2.0, -111985.83835194568, -53857.399983096126, 10785.722528186147, -91367.80695531452, 47731.30091801893, -164435.68193145777, -118564.5378904984, -187500.02235174447, -0.082, 0.484, -0.028, 192.0, 0.0, 0.0, 0.0, 0.0, 0.0, 0.0, 0.0, 0.0, 0.0, 1.7184655256437285E9, 0.0, 2024-06-15 10:32:05.643
3.0, -110378.52440816455, -51084.9566560932, 12182.728908387293, -90310.07770420048, 49255.1757997484, -163635.46712821332, -117789.46879976617, -187500.02235174447, -0.082, 0.484, -0.028, 192.0, 0.0, 0.0, 0.0, 0.0, 0.0, 0.0, 0.0, 0.0, 0.0, 1.7184655256437385E9, 0.0, 2024-06-15 10:32:05.643
4.0, -103596.78162297985, -40078.86827932218, 18497.52140015619, -86394.61086924207, 52376.68631990985, -160772.00749778838, -114735.54995483757, -187500.02235174447, -0.082, 0.484, -0.028, 192.0, 0.0, 0.0, 0.0, 0.0, 0.0, 0.0, 0.0, 0.0, 0.0, 1.718465525643748E9, 0.0, 2024-06-15 10:32:05.643
5.0, -104205.93371462032, -40852.03747177571, 18050.62062151678, -86798.01515317145, 51313.883222804456, -161082.96496665062, -115022.65811236599, -187500.02235174447, -0.082, 0.484, -0.028, 192.0, 0.0, 0.0, 0.0, 0.0, 0.0, 0.0, 0.0, 0.0, 0.0, 1.7184655256437578E9, 0.0, 2024-06-15 10:32:05.643
6.0, -111170.98315608302, -52331.915775765876, 11640.45323615709, -90944.77783975337, 48043.0406979371, -164079.84215972928, -118197.2987290977, -187500.02235174447, -0.082, 0.484, -0.028, 192.0, 0.0, 0.0, 0.0, 0.0, 0.0, 0.0, 0.0, 0.0, 0.0, 1.718465525643767E9, 0.0, 2024-06-15 10:32:05.643
7.0, -111444.21088030469, -52759.41524021808, 11306.42876701698, -91029.42389600562, 48710.77671179494, -164106.50779086445, -118290.21493079841, -187500.02235174447, -0.11800000000000001, 0.724, -0.044, 192.0, 252.0, 80.0, 22.0, 160.0, 254.0, 160.0, 0.0, 0.0, 0.0, 1.7184655256437764E9, 0.0, 2024-06-15 10:32:05.643
8.0, -104514.29838112574, -41480.47911888112, 17734.857527596658, -86982.30528620545, 52096.5966101404, -161134.99982774258, -115141.18941321247, -187500.02235174447, -0.11800000000000001, 0.724, -0.044, 192.0, 0.0, 0.0, 0.0, 0.0, 0.0, 0.0, 0.0, 0.0, 0.0, 1.7184655256437857E9, 0.0, 2024-06-15 10:32:05.643
9.0, -103463.27465334829, -39665.49511736573, 18825.890877949107, -86442.48830586534, 51842.233758239, -160750.77334055584, -114685.6161577244, -187500.02235174447, -0.11800000000000001, 0.724, -0.044, 192.0, 0.0, 0.0, 0.0, 0.0, 0.0, 0.0, 0.0, 0.0, 0.0, 1.718465525643795E9, 0.0, 2024-06-15 10:32:05.643
10.0, -110120.98760855051, -50449.02717459526, 12711.191202544118, -90383.92786788082, 48484.80057535179, -163616.64695938193, -117718.41260414275, -187500.02235174447, -0.11800000000000001, 0.724, -0.044, 192.0, 0.0, 0.0, 0.0, 0.0, 0.0, 0.0, 0.0, 0.0, 0.0, 1.7184655256438043E9, 0.0, 2024-06-15 10:32:05.643
11.0, -112281.39546887821, -54030.78246483594, 10642.045514827432, -91636.58668238959, 48236.65150840897, -164508.25804570413, -118716.90973245022, -187500.02235174447, -0.11800000000000001, 0.724, -0.044, 192.0, 0.0, 0.0, 0.0, 0.0, 0.0, 0.0, 0.0, 0.0, 0.0, 1.718465525643814E9, 0.0, 2024-06-15 10:32:05.643
12.0, -105686.0438807063, -43255.297035610325, 16739.26612606837, -87739.85060928472, 51673.03105271233, -161642.27266815575, -115697.92666410527, -187500.02235174447, -0.11800000000000001, 0.724, -0.044, 192.0, 0.0, 0.0, 0.0, 0.0, 0.0, 0.0, 0.0, 0.0, 0.0, 1.7184655256438236E9, 0.0, 2024-06-15 10:32:05.643
13.0, -103049.074476847, -38991.81353948278, 19299.814915634983, -86291.43521683637, 52251.47184747122, -160587.51619905428, -114526.11410929133, -187500.02235174447, -0.11800000000000001, 0.724, -0.044, 192.0, 0.0, 0.0, 0.0, 0.0, 0.0, 0.0, 0.0, 0.0, 0.0, 1.7184655256438332E9, 0.0, 2024-06-15 10:32:05.643
14.0, -108970.43156271358, -48402.233231333885, 13880.299196278955, -89765.14217438009, 49036.866311653415, -163123.63453193122, -117208.74812707283, -187500.02235174447, -0.11800000000000001, 0.724, -0.044, 192.0, 0.0, 0.0, 0.0, 0.0, 0.0, 0.0, 0.0, 0.0, 0.0, 1.7184655256438425E9, 0.0, 2024-06-15 10:32:05.643
15.0, -112701.78707859362, -54678.334853450644, 10373.466953452464, -91937.84349415821, 47946.79408631255, -164656.74068412074, -118883.1173042199, -187500.02235174447, -0.11800000000000001, 0.724, -0.044, 192.0, 0.0, 0.0, 0.0, 0.0, 0.0, 0.0, 0.0, 0.0, 0.0, 1.7184655256438518E9, 0.0, 2024-06-15 10:32:05.643
16.0, -106911.54532570188, -45131.63657565553, 15696.758412928393, -88485.41539733594, 51156.63870056137, -162122.99163615605, -116233.45210950996, -187500.02235174447, -0.11800000000000001, 0.724, -0.044, 192.0, 0.0, 0.0, 0.0, 0.0, 0.0, 0.0, 0.0, 0.0, 0.0, 1.7184655256438615E9, 0.0, 2024-06-15 10:32:05.643
17.0, -102898.2896087515, -38708.16990234493, 19520.8066130646, -86279.38762657496, 52511.422635486444, -160524.41722445693, -114481.58943433636, -187500.02235174447, -0.138, 0.846, -0.06, 192.0, 251.0, 176.0, 26.0, 112.0, 254.0, 32.0, 0.0, 0.0, 0.0, 1.718465525643872E9, 0.0, 2024-06-15 10:32:05.643
18.0, -107775.2837866883, -46306.24309852637, 15081.906626451806, -89136.20878889666, 49632.04856300933, -162624.29656079967, -116693.40630691127, -187500.02235174447, -0.138, 0.846, -0.06, 192.0, 0.0, 0.0, 0.0, 0.0, 0.0, 0.0, 0.0, 0.0, 0.0, 1.7184655256438825E9, 0.0, 2024-06-15 10:32:05.643
19.0, -112940.16843320947, -54927.73561808296, 10264.3233852772, -92198.42013101818, 47743.66143270271, -164818.83553491064, -119053.45994871377, -187500.02235174447, -0.138, 0.846, -0.06, 192.0, 0.0, 0.0, 0.0, 0.0, 0.0, 0.0, 0.0, 0.0, 0.0, 1.7184655256438923E9, 0.0, 2024-06-15 10:32:05.643
20.0, -108346.05793309903, -47268.932732216446, 14457.309479392707, -89429.28486219465, 50538.18828322748, -162785.69850751144, -116948.77498731315, -187500.02235174447, -0.138, 0.846, -0.06, 192.0, 0.0, 0.0, 0.0, 0.0, 0.0, 0.0, 0.0, 0.0, 0.0, 1.718465525643902E9, 0.0, 2024-06-15 10:32:05.643
21.0, -103042.41365699931, -38850.84108720316, 19467.05066764959, -86450.89256178052, 52653.13269533309, -160600.167286416, -114581.07704890694, -187500.02235174447, -0.138, 0.846, -0.06, 192.0, 0.0, 0.0, 0.0, 0.0, 0.0, 0.0, 0.0, 0.0, 0.0, 1.7184655256439114E9, 0.0, 2024-06-15 10:32:05.643
22.0, -106597.07863296017, -44278.96222817448, 16270.281823907117, -88539.48426717333, 50280.00328302423, -162144.62812478878, -116198.3822224596, -187500.02235174447, -0.138, 0.846, -0.06, 192.0, 0.0, 0.0, 0.0, 0.0, 0.0, 0.0, 0.0, 0.0, 0.0, 1.7184655256439269E9, 0.0, 2024-06-15 10:32:05.643
23.0, -112762.40500955642, -54526.3206394101, 10551.006859660967, -92188.27243903547, 47748.48940950506, -164764.05140925068, -118999.39107887639, -187500.02235174447, -0.138, 0.846, -0.06, 192.0, 0.0, 0.0, 0.0, 0.0, 0.0, 0.0, 0.0, 0.0, 0.0, 1.7184655256439445E9, 0.0, 2024-06-15 10:32:05.643
24.0, -109646.14714934197, -49304.28258231671, 13361.559910960188, -90248.54335171502, 49934.11003757835, -163320.97808372715, -117534.90478216468, -187500.02235174447, -0.138, 0.846, -0.06, 192.0, 0.0, 0.0, 0.0, 0.0, 0.0, 0.0, 0.0, 0.0, 0.0, 1.7184655256439543E9, 0.0, 2024-06-15 10:32:05.643
25.0, -103378.56154186268, -39312.628127649805, 19239.174632927734, -86675.1029104117, 52661.98398613739, -160695.4304212845, -114712.70647200424, -187500.02235174447, -0.138, 0.846, -0.06, 192.0, 0.0, 0.0, 0.0, 0.0, 0.0, 0.0, 0.0, 0.0, 0.0, 1.7184655256439636E9, 0.0, 2024-06-15 10:32:05.643
26.0, -105445.51675862275, -42357.49451607401, 17432.30431464962, -87927.49350398702, 50922.28065994748, -161641.28919139973, -115680.26878598557, -187500.02235174447, -0.138, 0.846, -0.06, 192.0, 0.0, 0.0, 0.0, 0.0, 0.0, 0.0, 0.0, 0.0, 0.0, 1.7184655256439729E9, 0.0, 2024-06-15 10:32:05.643
27.0, -112228.42183451913, -53558.15482832847, 11164.562244959146, -91948.88525591913, 47904.07990265846, -164538.83523211902, -118765.39066617379, -187500.02235174447, -0.146, 0.91, -0.066, 192.0, 251.0, 112.0, 28.0, 112.0, 253.0, 240.0, 0.0, 0.0, 0.0, 1.7184655256439824E9, 0.0, 2024-06-15 10:32:05.643
28.0, -110895.14027776007, -51288.31282714759, 12313.374854728563, -91067.31010285737, 49306.85303292907, -163860.99622976736, -118116.6759868474, -187500.02235174447, -0.146, 0.91, -0.066, 192.0, 0.0, 0.0, 0.0, 0.0, 0.0, 0.0, 0.0, 0.0, 0.0, 1.7184655256439917E9, 0.0, 2024-06-15 10:32:05.643
29.0, -104121.42176883481, -40342.64121563926, 18623.518183650755, -87177.99480891167, 52469.46841114383, -161017.04967225192, -115079.74446770483, -187500.02235174447, -0.146, 0.91, -0.066, 192.0, 0.0, 0.0, 0.0, 0.0, 0.0, 0.0, 0.0, 0.0, 0.0, 1.7184655256440043E9, 0.0, 2024-06-15 10:32:05.644
30.0, -104510.72210201289, -40764.150412577445, 18380.152390021372, -87467.11462344106, 51516.4570828029, -161250.98302972116, -115284.30763295981, -187500.02235174447, -0.146, 0.91, -0.066, 192.0, 0.0, 0.0, 0.0, 0.0, 0.0, 0.0, 0.0, 0.0, 0.0, 1.7184655256440136E9, 0.0, 2024-06-15 10:32:05.644
31.0, -111447.54129022853, -52143.37881128536, 11996.963560219236, -91580.10382415103, 48219.50772041175, -164227.47543185658, -118441.7597582054, -187500.02235174447, -0.146, 0.91, -0.066, 192.0, 0.0, 0.0, 0.0, 0.0, 0.0, 0.0, 0.0, 0.0, 0.0, 1.7184655256440232E9, 0.0, 2024-06-15 10:32:05.644
32.0, -111993.75086948287, -53051.77605769349, 11411.481965956924, -91822.173216602, 48753.93793033814, -164361.7870642885, -118650.59210665133, -187500.02235174447, -0.146, 0.91, -0.066, 192.0, 0.0, 0.0, 0.0, 0.0, 0.0, 0.0, 0.0, 0.0, 0.0, 1.7184655256440327E9, 0.0, 2024-06-15 10:32:05.644
33.0, -105070.47683840715, -41760.18884899484, 17822.25284841691, -87777.96033358101, 52161.90840743881, -161395.10707796898, -115508.54033333545, -187500.02235174447, -0.146, 0.91, -0.066, 192.0, 0.0, 0.0, 0.0, 0.0, 0.0, 0.0, 0.0, 0.0, 0.0, 1.718465525644042E9, 0.0, 2024-06-15 10:32:05.644
34.0, -103781.18351473613, -39544.77334556262, 19130.79102406395, -87115.87931107037, 52025.96509766163, -160932.0906915773, -114966.7340477388, -187500.02235174447, -0.146, 0.91, -0.066, 192.0, 0.0, 0.0, 0.0, 0.0, 0.0, 0.0, 0.0, 0.0, 0.0, 1.7184655256440513E9, 0.0, 2024-06-15 10:32:05.644
35.0, -110447.18896713127, -50338.05076337466, 13022.461595828725, -91079.58121056334, 48658.60774023626, -163826.08280492818, -118023.71508165779, -187500.02235174447, -0.146, 0.91, -0.066, 192.0, 0.0, 0.0, 0.0, 0.0, 0.0, 0.0, 0.0, 0.0, 0.0, 1.7184655256440606E9, 0.0, 2024-06-15 10:32:05.644
36.0, -112878.07528711263, -54434.87965284344, 10711.268867405519, -92475.40294830834, 48290.228639868335, -164802.63052018054, -119113.02734768718, -187500.02235174447, -0.146, 0.91, -0.066, 192.0, 0.0, 0.0, 0.0, 0.0, 0.0, 0.0, 0.0, 0.0, 0.0, 1.7184655256440723E9, 0.0, 2024-06-15 10:32:05.644
37.0, -106295.06186188005, -43565.31573120543, 16774.268957885382, -88562.93124710694, 51718.650963145614, -161929.15730823964, -116098.29111078872, -187500.02235174447, -0.146, 0.91, -0.066, 192.0, 0.0, 0.0, 0.0, 0.0, 0.0, 0.0, 0.0, 0.0, 0.0, 1.7184655256440816E9, 0.0, 2024-06-15 10:32:05.644
38.0, -103316.9377823994, -38737.31657711465, 19641.394274400984, -86911.65142198223, 52451.83288476859, -160719.9279332075, -114767.2894319641, -187500.02235174447, -0.154, 0.9400000000000001, -0.07, 192.0, 251.0, 48.0, 29.0, 96.0, 253.0, 208.0, 0.0, 0.0, 0.0, 1.7184655256440914E9, 0.0, 2024-06-15 10:32:05.644
39.0, -109182.86254201681, -48148.47387653278, 14293.962930913322, -90382.13972832439, 49258.349747461056, -163252.80526313846, -117434.41133909361, -187500.02235174447, -0.154, 0.9400000000000001, -0.07, 192.0, 0.0, 0.0, 0.0, 0.0, 0.0, 0.0, 0.0, 0.0, 0.0, 1.718465525644101E9, 0.0, 2024-06-15 10:32:05.644
40.0, -113317.51058310397, -55148.77201900149, 10428.049913412324, -92828.85108338013, 47994.78328165809, -164995.12374342963, -119317.8140303867, -187500.02235174447, -0.154, 0.9400000000000001, -0.07, 192.0, 0.0, 0.0, 0.0, 0.0, 0.0, 0.0, 0.0, 0.0, 0.0, 1.71846552564411E9, 0.0, 2024-06-15 10:32:05.644
41.0, -107620.29679063521, -45593.44596784663, 15634.642915087095, -89409.68238230735, 51163.41127913133, -162493.36004178048, -116715.1545542663, -187500.02235174447, -0.154, 0.9400000000000001, -0.07, 192.0, 0.0, 0.0, 0.0, 0.0, 0.0, 0.0, 0.0, 0.0, 0.0, 1.7184655256441193E9, 0.0, 2024-06-15 10:32:05.644
42.0, -103214.365627094, -38476.3823123434, 19805.813706614223, -86948.93413173368, 52697.47855633242, -160699.6325492421, -114762.81908307303, -187500.02235174447, -0.154, 0.9400000000000001, -0.07, 192.0, 0.0, 0.0, 0.0, 0.0, 0.0, 0.0, 0.0, 0.0, 0.0, 1.7184655256441283E9, 0.0, 2024-06-15 10:32:05.644
43.0, -107950.45440798455, -45973.582085798036, 15522.97359978838, -89746.54552299327, 49886.478470144095, -162747.67819019296, -116911.8946089619, -187500.02235174447, -0.154, 0.9400000000000001, -0.07, 192.0, 0.0, 0.0, 0.0, 0.0, 0.0, 0.0, 0.0, 0.0, 0.0, 1.71846552564414E9, 0.0, 2024-06-15 10:32:05.644
44.0, -113474.9339193027, -55320.880451307356, 10401.518392743874, -93044.210141207, 47846.7923816195, -165110.25757911892, -119440.36864523515, -187500.02235174447, -0.154, 0.9400000000000001, -0.07, 192.0, 0.0, 0.0, 0.0, 0.0, 0.0, 0.0, 0.0, 0.0, 0.0, 1.71846552564415E9, 0.0, 2024-06-15 10:32:05.644
45.0, -109033.68699952209, -47787.89553497977, 14425.927630177455, -90325.25453868564, 50553.61098690164, -163114.67148240466, -117391.38423101715, -187500.02235174447, -0.154, 0.9400000000000001, -0.07, 192.0, 0.0, 0.0, 0.0, 0.0, 0.0, 0.0, 0.0, 0.0, 0.0, 1.7184655256441593E9, 0.0, 2024-06-15 10:32:05.644
46.0, -103415.2631062583, -38706.448818021876, 19697.81007740618, -87144.33308176197, 52806.867993696695, -160790.1571142861, -114886.8712648, -187500.02235174447, -0.154, 0.9400000000000001, -0.07, 192.0, 0.0, 0.0, 0.0, 0.0, 0.0, 0.0, 0.0, 0.0, 0.0, 1.7184655256441689E9, 0.0, 2024-06-15 10:32:05.644
47.0, -106716.77222451834, -43843.304376996086, 16754.21944310897, -89094.70159944316, 50549.364155455136, -162220.66875942575, -116374.4245617896, -187500.02235174447, -0.154, 0.9400000000000001, -0.07, 192.0, 0.0, 0.0, 0.0, 0.0, 0.0, 0.0, 0.0, 0.0, 0.0, 1.718465525644178E9, 0.0, 2024-06-15 10:32:05.644
48.0, -113212.9714742865, -54803.01288402235, 10763.549597686482, -92981.49114626541, 47873.1003848434, -165011.32875815974, -119344.3679027996, -187500.02235174447, -0.15, 0.9540000000000001, -0.064, 192.0, 251.0, 80.0, 29.0, 208.0, 254.0, 0.0, 0.0, 0.0, 0.0, 1.7184655256441872E9, 0.0, 2024-06-15 10:32:05.644
49.0, -110377.33976570843, -49934.89234863429, 13293.275331649225, -91194.15625264123, 49920.29665950497, -163684.7303729928, -118015.9590263318, -187500.02235174447, -0.15, 0.9540000000000001, -0.064, 192.0, 0.0, 0.0, 0.0, 0.0, 0.0, 0.0, 0.0, 0.0, 0.0, 1.7184655256441965E9, 0.0, 2024-06-15 10:32:05.644
50.0, -103822.8024629119, -39302.81571183392, 19401.783573840094, -87415.32563153811, 52762.38802223063, -160910.9235895781, -115051.26834526878, -187500.02235174447, -0.15, 0.9540000000000001, -0.064, 192.0, 0.0, 0.0, 0.0, 0.0, 0.0, 0.0, 0.0, 0.0, 0.0, 1.718465525644206E9, 0.0, 2024-06-15 10:32:05.644
51.0, -105574.53102761878, -41903.35177223108, 17899.701642954547, -88488.63404853751, 51163.32187215351, -161715.69814869144, -115863.19546260781, -187500.02235174447, -0.15, 0.9540000000000001, -0.064, 192.0, 0.0, 0.0, 0.0, 0.0, 0.0, 0.0, 0.0, 0.0, 0.0, 1.7184655256442156E9, 0.0, 2024-06-15 10:32:05.644
52.0, -112588.84371386096, -53657.731849876865, 11457.347745579213, -92687.61041016704, 48053.54601783109, -164741.99023747328, -119065.61929769747, -187500.02235174447, -0.15, 0.9540000000000001, -0.064, 192.0, 0.0, 0.0, 0.0, 0.0, 0.0, 0.0, 0.0, 0.0, 0.0, 1.718465525644225E9, 0.0, 2024-06-15 10:32:05.644
53.0, -111566.45257073076, -51891.31818906286, 12314.984180329346, -91968.46538406199, 49310.42931204192, -164179.5532917444, -118540.26389601993, -187500.02235174447, -0.15, 0.9540000000000001, -0.064, 192.0, 0.0, 0.0, 0.0, 0.0, 0.0, 0.0, 0.0, 0.0, 0.0, 1.718465525644234E9, 0.0, 2024-06-15 10:32:05.644
54.0, -104615.0376933858, -40434.104553950376, 18753.13594974708, -87943.49735301702, 52530.26515606227, -161253.2629076556, -115431.0915387978, -187500.02235174447, -0.15, 0.9540000000000001, -0.064, 192.0, 0.0, 0.0, 0.0, 0.0, 0.0, 0.0, 0.0, 0.0, 0.0, 1.7184655256442432E9, 0.0, 2024-06-15 10:32:05.644
55.0, -104660.23292067445, -40325.43037240868, 18833.06578791926, -88034.49130469457, 51733.91720460859, -161335.24910631767, -115474.38686780774, -187500.02235174447, -0.15, 0.9540000000000001, -0.064, 192.0, 0.0, 0.0, 0.0, 0.0, 0.0, 0.0, 0.0, 0.0, 0.0, 1.7184655256442525E9, 0.0, 2024-06-15 10:32:05.644
56.0, -111710.08488060057, -52052.317804374434, 12384.274588140797, -92246.4763815971, 48401.048588877755, -164377.5003406406, -118686.10902859081, -187500.02235174447, -0.15, 0.9540000000000001, -0.064, 192.0, 0.0, 0.0, 0.0, 0.0, 0.0, 0.0, 0.0, 0.0, 0.0, 1.7184655256442618E9, 0.0, 2024-06-15 10:32:05.644
57.0, -112668.86295901096, -53647.5618061497, 11421.942582362008, -92746.30609110667, 48756.5083809505, -164708.1273446235, -119100.46566730329, -187500.02235174447, -0.15, 0.9540000000000001, -0.064, 192.0, 0.0, 0.0, 0.0, 0.0, 0.0, 0.0, 0.0, 0.0, 0.0, 1.7184655256442711E9, 0.0, 2024-06-15 10:32:05.644
58.0, -105650.2363860889, -41980.867622002086, 17885.418878247605, -88605.75718948331, 52192.642056064855, -161684.159837265, -115916.4596696448, -187500.02235174447, -0.158, 0.964, -0.066, 192.0, 251.0, 16.0, 30.0, 32.0, 253.0, 240.0, 0.0, 0.0, 0.0, 1.7184655256442804E9, 0.0, 2024-06-15 10:32:05.644
59.0, -104008.45605235768, -39180.41755919666, 19517.0068165072, -87741.8622662857, 52217.43014066579, -161072.5714054789, -115215.88894318212, -187500.02235174447, -0.158, 0.964, -0.066, 192.0, 0.0, 0.0, 0.0, 0.0, 0.0, 0.0, 0.0, 0.0, 0.0, 1.7184655256442895E9, 0.0, 2024-06-15 10:32:05.644
60.0, -110626.58406812955, -50085.923085918796, 13488.987206099893, -91681.98307537832, 48877.3866149648, -163928.02911138884, -118220.81276426469, -187500.02235174447, -0.158, 0.964, -0.066, 192.0, 0.0, 0.0, 0.0, 0.0, 0.0, 0.0, 0.0, 0.0, 0.0, 1.7184655256442988E9, 0.0, 2024-06-15 10:32:05.644
61.0, -113416.79703197445, -54874.024376156856, 10859.170360466285, -93290.28049591547, 48340.922396292975, -165048.946744078, -119462.11689259016, -187500.02235174447, -0.158, 0.964, -0.066, 192.0, 0.0, 0.0, 0.0, 0.0, 0.0, 0.0, 0.0, 0.0, 0.0, 1.718465525644308E9, 0.0, 2024-06-15 10:32:05.644
62.0, -106840.17620565608, -43831.569711157055, 16880.037412647893, -89344.99643385368, 51738.76753315539, -162161.21311917462, -116445.77133009092, -187500.02235174447, -0.158, 0.964, -0.066, 192.0, 0.0, 0.0, 0.0, 0.0, 0.0, 0.0, 0.0, 0.0, 0.0, 1.7184655256443172E9, 0.0, 2024-06-15 10:32:05.644
63.0, -103538.35416297367, -38411.74106737865, 20035.232011703494, -87507.32541171616, 52608.07157851119, -160825.29405656984, -114980.07803917862, -187500.02235174447, -0.158, 0.964, -0.066, 192.0, 0.0, 0.0, 0.0, 0.0, 0.0, 0.0, 0.0, 0.0, 0.0, 1.7184655256443264E9, 0.0, 2024-06-15 10:32:05.644
64.0, -109331.12166298887, -47819.8361778064, 14782.437954239602, -90966.7719562974, 49454.46395331192, -163349.99064803013, -117627.19513502064, -187500.02235174447, -0.158, 0.964, -0.066, 192.0, 0.0, 0.0, 0.0, 0.0, 0.0, 0.0, 0.0, 0.0, 0.0, 1.7184655256443377E9, 0.0, 2024-06-15 10:32:05.644
65.0, -113834.95346724433, -55524.84011946203, 10599.040758495423, -93652.06583166908, 48038.72681125723, -165267.7032670621, -119687.64599414422, -187500.02235174447, -0.158, 0.964, -0.066, 192.0, 0.0, 0.0, 0.0, 0.0, 0.0, 0.0, 0.0, 0.0, 0.0, 1.718465525644347E9, 0.0, 2024-06-15 10:32:05.644
66.0, -108239.68598123622, -46008.115530981486, 15688.331805268743, -90251.78435466104, 51154.492933093665, -162782.14458014307, -117112.65797765947, -187500.02235174447, -0.158, 0.964, -0.066, 192.0, 0.0, 0.0, 0.0, 0.0, 0.0, 0.0, 0.0, 0.0, 0.0, 1.7184655256443565E9, 0.0, 2024-06-15 10:32:05.644
67.0, -103496.64580782007, -38270.36628369884, 20154.61267883929, -87573.50892704833, 52832.77366552039, -160827.19395484854, -114995.65720506397, -187500.02235174447, -0.158, 0.964, -0.066, 192.0, 0.0, 0.0, 0.0, 0.0, 0.0, 0.0, 0.0, 0.0, 0.0, 1.7184655256443655E9, 0.0, 2024-06-15 10:32:05.644
68.0, -108059.01683080397, -45565.43923204413, 16051.927632323222, -90292.08454991395, 50098.32830409149, -162819.18142070548, -117072.06720972863, -187500.02235174447, -0.156, 0.968, -0.064, 192.0, 251.0, 32.0, 30.0, 64.0, 254.0, 0.0, 0.0, 0.0, 0.0, 1.718465525644375E9, 0.0, 2024-06-15 10:32:05.644
69.0, -113880.10399104404, -55516.92760192485, 10682.524524035995, -93786.66803677894, 47925.9622604802, -165323.6720351782, -119737.40097730172, -187500.02235174447, -0.156, 0.968, -0.064, 192.0, 0.0, 0.0, 0.0, 0.0, 0.0, 0.0, 0.0, 0.0, 0.0, 1.7184655256443841E9, 0.0, 2024-06-15 10:32:05.644
70.0, -109657.74770471427, -48256.45515399637, 14488.691328607956, -91173.5702959979, 50530.05224824575, -163411.7261662157, -117783.59029097442, -187500.02235174447, -0.156, 0.968, -0.064, 192.0, 0.0, 0.0, 0.0, 0.0, 0.0, 0.0, 0.0, 0.0, 0.0, 1.7184655256443937E9, 0.0, 2024-06-15 10:32:05.644
71.0, -103736.32356361432, -38600.74741849273, 20021.217467930015, -87778.7649963814, 52912.05530310337, -160927.3297700083, -115118.18946816797, -187500.02235174447, -0.156, 0.968, -0.064, 192.0, 0.0, 0.0, 0.0, 0.0, 0.0, 0.0, 0.0, 0.0, 0.0, 1.7184655256444032E9, 0.0, 2024-06-15 10:32:05.644
72.0, -106824.2617636039, -43429.79710457291, 17286.637996034384, -89626.47195177937, 50748.71936425202, -162289.22155967017, -116524.65063627371, -187500.02235174447, -0.156, 0.968, -0.064, 192.0, 0.0, 0.0, 0.0, 0.0, 0.0, 0.0, 0.0, 0.0, 0.0, 1.7184655256444123E9, 0.0, 2024-06-15 10:32:05.644
73.0, -113556.58484179794, -54874.69492849051, 11102.156174439928, -93679.40201513792, 47971.29159823556, -165203.4420017531, -119610.39836530667, -187500.02235174447, -0.156, 0.968, -0.064, 192.0, 0.0, 0.0, 0.0, 0.0, 0.0, 0.0, 0.0, 0.0, 0.0, 1.7184655256444216E9, 0.0, 2024-06-15 10:32:05.644
74.0, -111044.3605237437, -50480.05139589923, 13321.282067451724, -92082.2357633395, 49881.225810197095, -164026.28738001434, -118442.2067930945, -187500.02235174447, -0.156, 0.968, -0.064, 192.0, 0.0, 0.0, 0.0, 0.0, 0.0, 0.0, 0.0, 0.0, 0.0, 1.7184655256444309E9, 0.0, 2024-06-15 10:32:05.644
75.0, -104368.47560029932, -39493.967830415706, 19517.498554885216, -88236.34990887046, 52803.5599355173, -161223.9597706747, -115458.76299843348, -187500.02235174447, -0.156, 0.968, -0.064, 192.0, 0.0, 0.0, 0.0, 0.0, 0.0, 0.0, 0.0, 0.0, 0.0, 1.7184655256444397E9, 0.0, 2024-06-15 10:32:05.644
76.0, -105817.4274346146, -41647.13372553989, 18300.267255338105, -89134.44300108468, 51357.91615938141, -161892.209874655, -116127.54954428072, -187500.02235174447, -0.156, 0.968, -0.064, 192.0, 0.0, 0.0, 0.0, 0.0, 0.0, 0.0, 0.0, 0.0, 0.0, 1.718465525644449E9, 0.0, 2024-06-15 10:32:05.644
77.0, -112922.04116845623, -53656.34604172064, 11795.976674077116, -93390.32690409743, 48200.08405448009, -164948.85563240715, -119355.90140293854, -187500.02235174447, -0.156, 0.968, -0.064, 192.0, 0.0, 0.0, 0.0, 0.0, 0.0, 0.0, 0.0, 0.0, 0.0, 1.7184655256444583E9, 0.0, 2024-06-15 10:32:05.644
78.0, -112240.67059048064, -52446.66963179942, 12335.436026505951, -92874.38158683557, 49306.11542536205, -164538.94699084127, -118995.18895091879, -187500.02235174447, -0.156, 0.968, -0.064, 192.0, 0.0, 0.0, 0.0, 0.0, 0.0, 0.0, 0.0, 0.0, 0.0, 1.7184655256444676E9, 0.0, 2024-06-15 10:32:05.644
79.0, -105151.70307775773, -40708.96395551729, 18884.407744933098, -88729.31763283224, 52593.38648240406, -161515.65003581645, -115795.1344007414, -187500.02235174447, -0.16, 0.966, -0.062, 192.0, 251.0, 0.0, 30.0, 48.0, 254.0, 16.0, 0.0, 0.0, 0.0, 1.718465525644477E9, 0.0, 2024-06-15 10:32:05.644
80.0, -104887.93014144065, -40115.256919295425, 19248.42825513223, -88642.41405039001, 51921.78361675544, -161465.67153521438, -115694.73036464816, -187500.02235174447, -0.16, 0.966, -0.062, 192.0, 0.0, 0.0, 0.0, 0.0, 0.0, 0.0, 0.0, 0.0, 0.0, 1.7184655256444862E9, 0.0, 2024-06-15 10:32:05.644
81.0, -111934.18347050948, -51878.22006681205, 12812.53401190448, -92857.97540640539, 48560.70709952201, -164508.10158349294, -118901.9151213068, -187500.02235174447, -0.16, 0.966, -0.062, 192.0, 0.0, 0.0, 0.0, 0.0, 0.0, 0.0, 0.0, 0.0, 0.0, 1.7184655256444955E9, 0.0, 2024-06-15 10:32:05.644
82.0, -113206.24359920545, -54035.31986896037, 11567.273624810414, -93538.72013553622, 48775.619122459786, -164963.87600468114, -119449.6446191841, -187500.02235174447, -0.16, 0.966, -0.062, 192.0, 0.0, 0.0, 0.0, 0.0, 0.0, 0.0, 0.0, 0.0, 0.0, 1.7184655256445043E9, 0.0, 2024-06-15 10:32:05.644
83.0, -106231.2252797157, -42382.52846986395, 17980.391440438205, -89414.26448992068, 52196.844184022455, -161958.63925917618, -116291.36547939367, -187500.02235174447, -0.16, 0.966, -0.062, 192.0, 0.0, 0.0, 0.0, 0.0, 0.0, 0.0, 0.0, 0.0, 0.0, 1.7184655256445143E9, 0.0, 2024-06-15 10:32:05.644
84.0, -104316.86542235201, -39133.858875496255, 19860.955460185465, -88393.6614863469, 52335.536758367634, -161235.47091906916, -115476.66674574219, -187500.02235174447, -0.16, 0.966, -0.062, 192.0, 0.0, 0.0, 0.0, 0.0, 0.0, 0.0, 0.0, 0.0, 0.0, 1.7184655256445239E9, 0.0, 2024-06-15 10:32:05.644
85.0, -110835.0140851753, -49864.26083615552, 13925.762644501048, -92279.8251843244, 49011.072398551994, -164054.18235709457, -118441.49153727193, -187500.02235174447, -0.16, 0.966, -0.062, 192.0, 0.0, 0.0, 0.0, 0.0, 0.0, 0.0, 0.0, 0.0, 0.0, 1.718465525644534E9, 0.0, 2024-06-15 10:32:05.644
86.0, -113916.76085195075, -55169.60384483384, 11028.887156115432, -94064.79079303633, 48344.275157961274, -165302.99667155705, -119812.56989390492, -187500.02235174447, -0.16, 0.966, -0.062, 192.0, 0.0, 0.0, 0.0, 0.0, 0.0, 0.0, 0.0, 0.0, 0.0, 1.7184655256445453E9, 0.0, 2024-06-15 10:32:05.644
87.0, -107509.85682128154, -44375.41000549913, 16889.268683107937, -90228.42678170525, 51693.16997446656, -162507.7098617208, -116894.95198666478, -187500.02235174447, -0.16, 0.966, -0.062, 192.0, 0.0, 0.0, 0.0, 0.0, 0.0, 0.0, 0.0, 0.0, 0.0, 1.7184655256445549E9, 0.0, 2024-06-15 10:32:05.644
88.0, -103968.82640943842, -38583.335409562045, 20263.130398169804, -88254.45482187925, 52685.69918700447, -161071.6102804673, -115324.74193867946, -187500.02235174447, -0.16, 0.966, -0.062, 192.0, 0.0, 0.0, 0.0, 0.0, 0.0, 0.0, 0.0, 0.0, 0.0, 1.7184655256445644E9, 0.0, 2024-06-15 10:32:05.644
89.0, -109542.61386902498, -47559.43835490207, 15202.516639532643, -91565.50813502171, 49590.67548402256, -163488.32559446403, -117864.45890241372, -187500.02235174447, -0.162, 0.972, -0.068, 192.0, 250.0, 240.0, 30.0, 96.0, 253.0, 224.0, 0.0, 0.0, 0.0, 1.7184655256445744E9, 0.0, 2024-06-15 10:32:05.644
90.0, -114235.87670753918, -55551.2598814082, 10840.260784657095, -94360.10204077984, 48077.12710823144, -165484.20226385622, -120011.54512304606, -187500.02235174447, -0.162, 0.972, -0.068, 192.0, 0.0, 0.0, 0.0, 0.0, 0.0, 0.0, 0.0, 0.0, 0.0, 1.718465525644584E9, 0.0, 2024-06-15 10:32:05.644
91.0, -108880.97988140344, -46571.42419474413, 15726.48623305395, -91107.02915275445, 51130.017772915104, -163092.20797922707, -117534.45774727556, -187500.02235174447, -0.162, 0.972, -0.068, 192.0, 0.0, 0.0, 0.0, 0.0, 0.0, 0.0, 0.0, 0.0, 0.0, 1.7184655256445937E9, 0.0, 2024-06-15 10:32:05.644
92.0, -104067.28584376405, -38798.158025521996, 20271.28878489599, -88399.115311994, 52866.502447903455, -161117.81133625645, -115394.233512191, -187500.02235174447, -0.162, 0.972, -0.068, 192.0, 0.0, 0.0, 0.0, 0.0, 0.0, 0.0, 0.0, 0.0, 0.0, 1.718465525644603E9, 0.0, 2024-06-15 10:32:05.644
93.0, -108361.30182281755, -45454.88750396818, 16387.315557875107, -90928.59517676773, 50198.84409890701, -162984.98666107497, -117353.52037590985, -187500.02235174447, -0.162, 0.972, -0.068, 192.0, 0.0, 0.0, 0.0, 0.0, 0.0, 0.0, 0.0, 0.0, 0.0, 1.7184655256446135E9, 0.0, 2024-06-15 10:32:05.644
94.0, -114125.52614516333, -55146.98387944506, 11040.487711487736, -94349.10498250782, 47991.31876126752, -165430.82629809694, -119972.25075629364, -187500.02235174447, -0.162, 0.972, -0.068, 192.0, 0.0, 0.0, 0.0, 0.0, 0.0, 0.0, 0.0, 0.0, 0.0, 1.7184655256446273E9, 0.0, 2024-06-15 10:32:05.644
95.0, -110288.24571230957, -48775.21679105959, 14534.422997763515, -92019.13678874217, 50504.30303863323, -163714.94993149638, -118208.51930481427, -187500.02235174447, -0.162, 0.972, -0.068, 192.0, 0.0, 0.0, 0.0, 0.0, 0.0, 0.0, 0.0, 0.0, 0.0, 1.718465525644638E9, 0.0, 2024-06-15 10:32:05.644
96.0, -104556.92315780201, -39670.52425986818, 19937.353722733704, -88785.0628835038, 52900.119471564234, -161348.77191171312, -115649.1998611927, -187500.02235174447, -0.162, 0.972, -0.068, 192.0, 0.0, 0.0, 0.0, 0.0, 0.0, 0.0, 0.0, 0.0, 0.0, 1.7184655256446474E9, 0.0, 2024-06-15 10:32:05.644
97.0, -107325.834909181, -43728.08113432898, 17458.098227751045, -90377.73643466669, 50825.87758611174, -162533.70494052232, -116887.97824239472, -187500.02235174447, -0.162, 0.972, -0.068, 192.0, 0.0, 0.0, 0.0, 0.0, 0.0, 0.0, 0.0, 0.0, 0.0, 1.7184655256446588E9, 0.0, 2024-06-15 10:32:05.644
98.0, -113689.62242479592, -54094.8202127004, 11537.679915151586, -94120.42428498558, 48073.304959929585, -165235.248534113, -119781.81389353442, -187500.02235174447, -0.162, 0.972, -0.068, 192.0, 0.0, 0.0, 0.0, 0.0, 0.0, 0.0, 0.0, 0.0, 0.0, 1.7184655256446683E9, 0.0, 2024-06-15 10:32:05.644
99.0, -111537.75293085015, -50637.49708384241, 13487.780211899306, -92820.91621409848, 49912.42884545671, -164261.51713866202, -118797.35366074488, -187500.02235174447, -0.164, 0.974, -0.064, 192.0, 250.0, 224.0, 30.0, 112.0, 254.0, 0.0, 0.0, 0.0, 0.0, 1.7184655256446776E9, 0.0, 2024-06-15 10:32:05.644
100.0, -105260.75723895518, -40887.06265533718, 19415.66400714684, -89276.24246790916, 52820.301392114336, -161646.49714785782, -115973.27780405019, -187500.02235174447, -0.164, 0.974, -0.064, 192.0, 0.0, 0.0, 0.0, 0.0, 0.0, 0.0, 0.0, 0.0, 0.0, 1.7184655256446877E9, 0.0, 2024-06-15 10:32:05.644
101.0, -106465.6727273074, -42406.19896724212, 18385.092125545994, -89953.8356010718, 51421.70803805686, -162165.3258401544, -116502.85768542979, -187500.02235174447, -0.164, 0.974, -0.064, 192.0, 0.0, 0.0, 0.0, 0.0, 0.0, 0.0, 0.0, 0.0, 0.0, 1.7184655256446967E9, 0.0, 2024-06-15 10:32:05.644
102.0, -112996.09249783665, -52655.39022152308, 12282.976482269345, -93743.19389381337, 48300.13046266204, -164927.5767716857, -119470.85642467218, -187500.02235174447, -0.164, 0.974, -0.064, 192.0, 0.0, 0.0, 0.0, 0.0, 0.0, 0.0, 0.0, 0.0, 0.0, 1.7184655256447067E9, 0.0, 2024-06-15 10:32:05.644
103.0, -112555.80783555601, -52099.01059854157, 12650.685030303603, -93466.43459396776, 49362.777097556245, -164689.06130660314, -119261.10765470358, -187500.02235174447, -0.164, 0.974, -0.064, 192.0, 0.0, 0.0, 0.0, 0.0, 0.0, 0.0, 0.0, 0.0, 0.0, 1.7184655256447165E9, 0.0, 2024-06-15 10:32:05.644
104.0, -106146.48981648563, -42292.89797459817, 18713.12632717208, -89862.48402148296, 52587.37386314558, -162027.996722221, -116385.13104738368, -187500.02235174447, -0.164, 0.974, -0.064, 192.0, 0.0, 0.0, 0.0, 0.0, 0.0, 0.0, 0.0, 0.0, 0.0, 1.7184655256447265E9, 0.0, 2024-06-15 10:32:05.644
105.0, -105875.9890050875, -41544.71803244568, 19064.182825587133, -89734.74380192088, 51933.42887561666, -161967.4234947471, -116287.945662492, -187500.02235174447, -0.164, 0.974, -0.064, 192.0, 0.0, 0.0, 0.0, 0.0, 0.0, 0.0, 0.0, 0.0, 0.0, 1.7184655256447356E9, 0.0, 2024-06-15 10:32:05.644
106.0, -112168.5191593789, -51033.10060895689, 13162.6070335635, -93320.38829569677, 48662.89927517167, -164602.58240730554, -119136.40727238743, -187500.02235174447, -0.164, 0.974, -0.064, 192.0, 0.0, 0.0, 0.0, 0.0, 0.0, 0.0, 0.0, 0.0, 0.0, 1.7184655256447449E9, 0.0, 2024-06-15 10:32:05.644
107.0, -113391.67367120668, -53159.73498341262, 11973.896559941359, -94027.55278677378, 48891.06588257145, -165074.78536066835, -119686.68486913263, -187500.02235174447, -0.164, 0.974, -0.064, 192.0, 0.0, 0.0, 0.0, 0.0, 0.0, 0.0, 0.0, 0.0, 0.0, 1.7184655256447566E9, 0.0, 2024-06-15 10:32:05.644
108.0, -107258.55615837053, -43991.04940784567, 17797.62122602716, -90590.59209711458, 52249.840170125986, -162518.0587194036, -116922.62344630045, -187500.02235174447, -0.164, 0.974, -0.064, 192.0, 0.0, 0.0, 0.0, 0.0, 0.0, 0.0, 0.0, 0.0, 0.0, 1.718465525644766E9, 0.0, 2024-06-15 10:32:05.644
109.0, -105485.5487329422, -41108.702553356, 19566.69474443135, -89611.0492481052, 52406.078863868584, -161810.1342690151, -116123.30271283421, -187500.02235174447, -0.162, 0.972, -0.066, 192.0, 250.0, 240.0, 30.0, 96.0, 253.0, 240.0, 0.0, 0.0, 0.0, 1.7184655256447754E9, 0.0, 2024-06-15 10:32:05.644
110.0, -111145.94920229306, -49252.828866580596, 14234.641401128936, -92760.56650406915, 49169.99330162923, -164143.3434657268, -118659.24223175553, -187500.02235174447, -0.162, 0.972, -0.066, 192.0, 0.0, 0.0, 0.0, 0.0, 0.0, 0.0, 0.0, 0.0, 0.0, 1.7184655256447868E9, 0.0, 2024-06-15 10:32:05.644
111.0, -113837.92624925688, -53580.46186929487, 11652.97021305206, -94318.55014783742, 48547.921901693575, -165243.742197006, -119882.57555753895, -187500.02235174447, -0.162, 0.972, -0.066, 192.0, 0.0, 0.0, 0.0, 0.0, 0.0, 0.0, 0.0, 0.0, 0.0, 1.7184655256447968E9, 0.0, 2024-06-15 10:32:05.644
112.0, -108346.50496798813, -45577.59858102782, 16888.173447629626, -91256.38350920481, 51811.81303403533, -162945.73699781144, -117396.6592427086, -187500.02235174447, -0.162, 0.972, -0.066, 192.0, 0.0, 0.0, 0.0, 0.0, 0.0, 0.0, 0.0, 0.0, 0.0, 1.7184655256448088E9, 0.0, 2024-06-15 10:32:05.644
113.0, -105308.43350987835, -40958.34236840515, 19857.088608394697, -89615.05021036271, 52730.737952081916, -161745.94005893948, -116057.83445332461, -187500.02235174447, -0.162, 0.972, -0.066, 192.0, 0.0, 0.0, 0.0, 0.0, 0.0, 0.0, 0.0, 0.0, 0.0, 1.7184655256448188E9, 0.0, 2024-06-15 10:32:05.644
114.0, -110125.48030918602, -47559.818334557815, 15319.751539200728, -92247.9739484756, 49731.80439851337, -163724.5388298677, -118213.68255778344, -187500.02235174447, -0.162, 0.972, -0.066, 192.0, 0.0, 0.0, 0.0, 0.0, 0.0, 0.0, 0.0, 0.0, 0.0, 1.7184655256448295E9, 0.0, 2024-06-15 10:32:05.644
115.0, -114087.08114470019, -53680.597684454646, 11528.962734814017, -94519.17940606826, 48327.44429438643, -165359.88186119578, -120017.46833532672, -187500.02235174447, -0.162, 0.972, -0.066, 192.0, 0.0, 0.0, 0.0, 0.0, 0.0, 0.0, 0.0, 0.0, 0.0, 1.71846552564484E9, 0.0, 2024-06-15 10:32:05.644
116.0, -109536.7577119777, -47231.11358059807, 15873.203083658587, -91986.2126691595, 51299.77927205316, -163434.97198044922, -117940.94657193978, -187500.02235174447, -0.162, 0.972, -0.066, 192.0, 0.0, 0.0, 0.0, 0.0, 0.0, 0.0, 0.0, 0.0, 0.0, 1.7184655256448512E9, 0.0, 2024-06-15 10:32:05.644
117.0, -105384.69766195986, -41185.570202537805, 19906.530667129835, -89752.55814225176, 52944.35357384128, -161778.17127444403, -116101.3532997791, -187500.02235174447, -0.162, 0.972, -0.066, 192.0, 0.0, 0.0, 0.0, 0.0, 0.0, 0.0, 0.0, 0.0, 0.0, 1.718465525644863E9, 0.0, 2024-06-15 10:32:05.644
118.0, -109146.89858518823, -46060.8209444071, 16368.204816365816, -91787.08097780717, 50326.87489114701, -163333.74092981112, -117802.94690167272, -187500.02235174447, -0.162, 0.972, -0.066, 192.0, 0.0, 0.0, 0.0, 0.0, 0.0, 0.0, 0.0, 0.0, 0.0, 1.7184655256448727E9, 0.0, 2024-06-15 10:32:05.644
119.0, -114088.39989762307, -53401.20087876331, 11628.807977295874, -94592.56018311503, 48221.45232217936, -165386.74865803108, -120066.95509755077, -187500.02235174447, -0.162, 0.972, -0.066, 192.0, 0.0, 0.0, 0.0, 0.0, 0.0, 0.0, 0.0, 0.0, 0.0, 1.7184655256448832E9, 0.0, 2024-06-15 10:32:05.644
120.0, -110760.96275579486, -48843.74723955956, 14808.388329552214, -92758.59955055709, 50711.03432310037, -163974.52073985586, -118547.17058505662, -187500.02235174447, -0.166, 0.966, -0.062, 192.0, 250.0, 208.0, 30.0, 48.0, 254.0, 16.0, 0.0, 0.0, 0.0, 1.718465525644899E9, 0.0, 2024-06-15 10:32:05.644
121.0, -105715.16820373156, -41689.66909523834, 19699.173533817953, -90044.87425623825, 53012.63815315225, -161942.3224857238, -116291.79016253832, -187500.02235174447, -0.166, 0.966, -0.062, 192.0, 0.0, 0.0, 0.0, 0.0, 0.0, 0.0, 0.0, 0.0, 0.0, 1.7184655261237576E9, 0.0, 2024-06-15 10:32:06.123
122.0, -108140.62304981031, -44623.11203755284, 17442.317896165598, -91303.63509698333, 50972.19210531618, -162910.1530206386, -117349.16178574107, -187500.02235174447, -0.166, 0.966, -0.062, 192.0, 0.0, 0.0, 0.0, 0.0, 0.0, 0.0, 0.0, 0.0, 0.0, 1.7184655261238368E9, 0.0, 2024-06-15 10:32:06.123
123.0, -113696.0373754546, -52677.674910745016, 12114.131404653956, -94401.27395406652, 48306.254840642796, -165186.47702771152, -119859.19563283869, -187500.02235174447, -0.166, 0.966, -0.062, 192.0, 0.0, 0.0, 0.0, 0.0, 0.0, 0.0, 0.0, 0.0, 0.0, 1.7184655261239352E9, 0.0, 2024-06-15 10:32:06.123
124.0, -111789.47827690582, -50220.83821545103, 13933.541051571496, -93360.15204908277, 50118.221356656715, -164360.28949741, -118982.60491879046, -187500.02235174447, -0.166, 0.966, -0.062, 192.0, 0.0, 0.0, 0.0, 0.0, 0.0, 0.0, 0.0, 0.0, 0.0, 1.7184655261239483E9, 0.0, 2024-06-15 10:32:06.123
125.0, -106176.01647091108, -42328.303137815376, 19365.663154800317, -90349.39442269737, 52913.2399455595, -162106.00431037002, -116486.16093232167, -187500.02235174447, -0.166, 0.966, -0.062, 192.0, 0.0, 0.0, 0.0, 0.0, 0.0, 0.0, 0.0, 0.0, 0.0, 1.7184655261239586E9, 0.0, 2024-06-15 10:32:06.123
126.0, -107239.13249243886, -43347.20740881055, 18420.340826552016, -90883.5564116903, 51538.74177202485, -162538.77878651366, -116949.356132669, -187500.02235174447, -0.166, 0.966, -0.062, 192.0, 0.0, 0.0, 0.0, 0.0, 0.0, 0.0, 0.0, 0.0, 0.0, 1.718465526123968E9, 0.0, 2024-06-15 10:32:06.123
127.0, -113131.20879306899, -51700.836622814735, 12777.017089964997, -94150.28621557787, 48484.91233407406, -164961.39496104658, -119617.66268225464, -187500.02235174447, -0.166, 0.966, -0.062, 192.0, 0.0, 0.0, 0.0, 0.0, 0.0, 0.0, 0.0, 0.0, 0.0, 1.7184655261239927E9, 0.0, 2024-06-15 10:32:06.123
128.0, -112793.54098958266, -51527.40943758601, 13082.498381435678, -93998.24964979288, 49517.71939012044, -164796.08145905513, -119468.30832580428, -187500.02235174447, -0.166, 0.966, -0.062, 192.0, 0.0, 0.0, 0.0, 0.0, 0.0, 0.0, 0.0, 0.0, 0.0, 1.718465526124002E9, 0.0, 2024-06-15 10:32:06.124
129.0, -106892.05460453685, -43273.78192827487, 18779.779229137806, -90802.7772072288, 52682.99462592538, -162388.75387772964, -116818.21844794971, -187500.02235174447, -0.166, 0.966, -0.062, 192.0, 0.0, 0.0, 0.0, 0.0, 0.0, 0.0, 0.0, 0.0, 0.0, 1.7184655261240113E9, 0.0, 2024-06-15 10:32:06.124
130.0, -106491.95837878686, -42319.80947492236, 19238.079397449423, -90550.78364023968, 52072.479077873126, -162226.32375077292, -116624.18295433318, -187500.02235174447, -0.164, 0.972, -0.066, 192.0, 250.0, 224.0, 30.0, 96.0, 253.0, 240.0, 0.0, 0.0, 0.0, 1.71846552612402E9, 0.0, 2024-06-15 10:32:06.124
131.0, -112324.3108182324, -50418.98643004733, 13667.04120243087, -93758.23661783179, 48831.49848359806, -164622.0507767261, -119261.37587563705, -187500.02235174447, -0.164, 0.972, -0.066, 192.0, 0.0, 0.0, 0.0, 0.0, 0.0, 0.0, 0.0, 0.0, 0.0, 1.7184655261240287E9, 0.0, 2024-06-15 10:32:06.124
132.0, -113524.10775710437, -52495.30702773417, 12497.597932529205, -94446.64799531079, 49023.030581835585, -165071.14202632214, -119786.95479475913, -187500.02235174447, -0.164, 0.972, -0.066, 192.0, 0.0, 0.0, 0.0, 0.0, 0.0, 0.0, 0.0, 0.0, 0.0, 1.7184655261240387E9, 0.0, 2024-06-15 10:32:06.124
133.0, -107775.79787681079, -44454.28931168191, 18034.259144575495, -91321.98587918114, 52310.525156322146, -162716.2516374888, -117204.41188864851, -187500.02235174447, -0.164, 0.972, -0.066, 192.0, 0.0, 0.0, 0.0, 0.0, 0.0, 0.0, 0.0, 0.0, 0.0, 1.7184655261240478E9, 0.0, 2024-06-15 10:32:06.124
134.0, -105987.92654131968, -41629.94523405376, 19819.202401542952, -90353.99888205515, 52494.5917719116, -162021.06768143986, -116416.78111753239, -187500.02235174447, -0.164, 0.972, -0.066, 192.0, 0.0, 0.0, 0.0, 0.0, 0.0, 0.0, 0.0, 0.0, 0.0, 1.7184655261240566E9, 0.0, 2024-06-15 10:32:06.124
135.0, -111409.85624907688, -48977.656540591306, 14657.916385879087, -93321.17060675271, 49279.248628526766, -164262.59002239586, -118876.36707739439, -187500.02235174447, -0.164, 0.972, -0.066, 192.0, 0.0, 0.0, 0.0, 0.0, 0.0, 0.0, 0.0, 0.0, 0.0, 1.7184655261240656E9, 0.0, 2024-06-15 10:32:06.124
136.0, -114140.07713080372, -53228.64541156834, 12023.42802565432, -94885.81507036867, 48597.498070895446, -165374.90223346977, -120118.78879294262, -187500.02235174447, -0.164, 0.972, -0.066, 192.0, 0.0, 0.0, 0.0, 0.0, 0.0, 0.0, 0.0, 0.0, 0.0, 1.7184655261240745E9, 0.0, 2024-06-15 10:32:06.124
137.0, -108947.78924558035, -45965.557809538586, 17015.779556724974, -92060.66632994013, 51802.22413566401, -163241.53998393298, -117788.08299160993, -187500.02235174447, -0.164, 0.972, -0.066, 192.0, 0.0, 0.0, 0.0, 0.0, 0.0, 0.0, 0.0, 0.0, 0.0, 1.7184655261240835E9, 0.0, 2024-06-15 10:32:06.124
138.0, -105806.38567285368, -41351.107221973805, 20093.368899031746, -90368.81808862902, 52815.13813914516, -161988.21061709055, -116385.35456482823, -187500.02235174447, -0.164, 0.972, -0.066, 192.0, 0.0, 0.0, 0.0, 0.0, 0.0, 0.0, 0.0, 0.0, 0.0, 1.718465526124092E9, 0.0, 2024-06-15 10:32:06.124
139.0, -110404.85476313291, -47423.070361980244, 15731.403616834119, -92852.70039471393, 49856.77300176299, -163871.61330838365, -118453.11444438869, -187500.02235174447, -0.164, 0.972, -0.066, 192.0, 0.0, 0.0, 0.0, 0.0, 0.0, 0.0, 0.0, 0.0, 0.0, 1.718465526124101E9, 0.0, 2024-06-15 10:32:06.124
140.0, -114426.00064587602, -53484.17055418141, 11862.987203954126, -95135.86403559019, 48366.31397799421, -165525.44123237627, -120286.5386350797, -187500.02235174447, -0.166, 0.97, -0.074, 192.0, 250.0, 208.0, 30.0, 80.0, 253.0, 176.0, 0.0, 0.0, 0.0, 1.71846552612411E9, 0.0, 2024-06-15 10:32:06.124
141.0, -110101.31807342984, -47504.20719435301, 16011.06864345892, -92756.76670751175, 51272.845419984515, -163709.11612619355, -118317.61816950062, -187500.02235174447, -0.166, 0.97, -0.074, 192.0, 0.0, 0.0, 0.0, 0.0, 0.0, 0.0, 0.0, 0.0, 0.0, 1.7184655261241188E9, 0.0, 2024-06-15 10:32:06.124
142.0, -105840.29326919238, -41400.63868768677, 20154.970306750572, -90474.76535734718, 53013.19694676363, -162014.20569589207, -116427.9793415045, -187500.02235174447, -0.166, 0.97, -0.074, 192.0, 0.0, 0.0, 0.0, 0.0, 0.0, 0.0, 0.0, 0.0, 0.0, 1.7184655261241276E9, 0.0, 2024-06-15 10:32:06.124
143.0, -109325.62313385286, -45838.4210870768, 16871.744915454976, -92315.5879754529, 50496.70344551843, -163417.336454074, -117968.01453447517, -187500.02235174447, -0.166, 0.97, -0.074, 192.0, 0.0, 0.0, 0.0, 0.0, 0.0, 0.0, 0.0, 0.0, 0.0, 1.7184655261241367E9, 0.0, 2024-06-15 10:32:06.124
144.0, -114370.9482992826, -53250.68423160127, 12025.14910997738, -95168.00584411691, 48283.99250316531, -165513.52775258158, -120279.36372510955, -187500.02235174447, -0.166, 0.97, -0.074, 192.0, 0.0, 0.0, 0.0, 0.0, 0.0, 0.0, 0.0, 0.0, 0.0, 1.7184655261241455E9, 0.0, 2024-06-15 10:32:06.124
145.0, -111332.74273070607, -49125.647440629895, 14933.491043268568, -93524.9738126962, 50655.8031625513, -164253.17993798017, -118920.80234537153, -187500.02235174447, -0.166, 0.97, -0.074, 192.0, 0.0, 0.0, 0.0, 0.0, 0.0, 0.0, 0.0, 0.0, 0.0, 1.7184655261241548E9, 0.0, 2024-06-15 10:32:06.124
146.0, -106176.79878196702, -41867.8348502916, 19932.81631860928, -90748.68598564697, 53053.295976316454, -162168.00804948903, -116607.1732768027, -187500.02235174447, -0.166, 0.97, -0.074, 192.0, 0.0, 0.0, 0.0, 0.0, 0.0, 0.0, 0.0, 0.0, 0.0, 1.7184655261241636E9, 0.0, 2024-06-15 10:32:06.124
147.0, -108400.17150642532, -44486.49817544201, 17865.43641870456, -91902.08070302973, 51100.46876674519, -163065.3411823918, -117585.91146301168, -187500.02235174447, -0.166, 0.97, -0.074, 192.0, 0.0, 0.0, 0.0, 0.0, 0.0, 0.0, 0.0, 0.0, 0.0, 1.7184655261241724E9, 0.0, 2024-06-15 10:32:06.124
148.0, -114036.74501618685, -52601.72368308588, 12454.682583175014, -95040.60090072166, 48364.10115529313, -165378.41145734926, -120136.64783676242, -187500.02235174447, -0.166, 0.97, -0.074, 192.0, 0.0, 0.0, 0.0, 0.0, 0.0, 0.0, 0.0, 0.0, 0.0, 1.7184655261241815E9, 0.0, 2024-06-15 10:32:06.124
149.0, -112384.50406605055, -50532.577995369196, 14028.58066899546, -94145.86057017572, 50067.16997232079, -164657.63475389895, -119376.17443515951, -187500.02235174447, -0.166, 0.97, -0.074, 192.0, 0.0, 0.0, 0.0, 0.0, 0.0, 0.0, 0.0, 0.0, 0.0, 1.7184655261241906E9, 0.0, 2024-06-15 10:32:06.124
150.0, -106722.58367807671, -42612.79614124252, 19509.675444325858, -91111.23128071205, 52933.91530918066, -162381.71307822622, -116854.22710826721, -187500.02235174447, -0.168, 0.97, -0.066, 192.0, 250.0, 192.0, 30.0, 80.0, 253.0, 240.0, 0.0, 0.0, 0.0, 1.7184655261241996E9, 0.0, 2024-06-15 10:32:06.124
151.0, -107545.79842636567, -43297.78770181986, 18789.010499597847, -91512.04276228462, 51681.681177816536, -162716.43045144447, -117207.22820844987, -187500.02235174447, -0.168, 0.97, -0.066, 192.0, 0.0, 0.0, 0.0, 0.0, 0.0, 0.0, 0.0, 0.0, 0.0, 1.7184655261242087E9, 0.0, 2024-06-15 10:32:06.124
152.0, -113433.56084031593, -51575.66685386501, 13144.345658343515, -94763.19340028685, 48589.317332424805, -165131.71525379602, -119872.83019695643, -187500.02235174447, -0.168, 0.97, -0.066, 192.0, 0.0, 0.0, 0.0, 0.0, 0.0, 0.0, 0.0, 0.0, 0.0, 1.7184655261242175E9, 0.0, 2024-06-15 10:32:06.124
153.0, -113341.91868804916, -51772.65277774964, 13216.944124334352, -94744.82026634458, 49497.96044802194, -165061.08374131724, -119830.29482725798, -187500.02235174447, -0.168, 0.97, -0.066, 192.0, 0.0, 0.0, 0.0, 0.0, 0.0, 0.0, 0.0, 0.0, 0.0, 1.7184655261242266E9, 0.0, 2024-06-15 10:32:06.124
154.0, -107489.29321638266, -43640.30583385299, 18874.930605284047, -91589.58096380008, 52688.18023063901, -162682.45579987238, -117209.21751370639, -187500.02235174447, -0.168, 0.97, -0.066, 192.0, 0.0, 0.0, 0.0, 0.0, 0.0, 0.0, 0.0, 0.0, 0.0, 1.7184655261242356E9, 0.0, 2024-06-15 10:32:06.124
155.0, -106907.34319774428, -42427.567234941394, 19505.42861287935, -91261.85968659636, 52198.54291660106, -162473.95872759327, -116958.31918219557, -187500.02235174447, -0.168, 0.97, -0.066, 192.0, 0.0, 0.0, 0.0, 0.0, 0.0, 0.0, 0.0, 0.0, 0.0, 1.7184655261242447E9, 0.0, 2024-06-15 10:32:06.124
156.0, -112655.76483676015, -50315.654315430445, 14005.58072395095, -94401.4304162777, 48963.59729332892, -164827.37390129257, -119552.26147797842, -187500.02235174447, -0.168, 0.97, -0.066, 192.0, 0.0, 0.0, 0.0, 0.0, 0.0, 0.0, 0.0, 0.0, 0.0, 1.718465526124254E9, 0.0, 2024-06-15 10:32:06.124
157.0, -114129.66121788755, -52760.309309996286, 12570.263453753407, -95261.07850802882, 49017.576756188486, -165414.8000973225, -120225.96540760582, -187500.02235174447, -0.168, 0.97, -0.066, 192.0, 0.0, 0.0, 0.0, 0.0, 0.0, 0.0, 0.0, 0.0, 0.0, 1.7184655261242633E9, 0.0, 2024-06-15 10:32:06.124
158.0, -108449.68062039383, -44904.0511136116, 18050.419455816682, -92173.6543981617, 52323.35505763949, -163075.0865429743, -117656.58767897937, -187500.02235174447, -0.168, 0.97, -0.066, 192.0, 0.0, 0.0, 0.0, 0.0, 0.0, 0.0, 0.0, 0.0, 0.0, 1.7184655261242728E9, 0.0, 2024-06-15 10:32:06.124
159.0, -106443.38803808547, -41812.98366939827, 20044.10565425225, -91091.76291129147, 52638.49230271486, -162291.18851318225, -116767.25647059162, -187500.02235174447, -0.168, 0.97, -0.066, 192.0, 0.0, 0.0, 0.0, 0.0, 0.0, 0.0, 0.0, 0.0, 0.0, 1.718465526124282E9, 0.0, 2024-06-15 10:32:06.124
160.0, -111667.57186264657, -48813.95236420064, 15058.571405240466, -93911.90486096202, 49474.53581983278, -164414.24660852514, -119107.37235633998, -187500.02235174447, -0.168, 0.97, -0.066, 192.0, 0.0, 0.0, 0.0, 0.0, 0.0, 0.0, 0.0, 0.0, 0.0, 1.7184655261242912E9, 0.0, 2024-06-15 10:32:06.124
161.0, -114574.12565638134, -53293.62193269991, 12244.151502150477, -95568.10206986692, 48669.493039785986, -165595.60335822147, -120429.36628214912, -187500.02235174447, -0.166, 0.976, -0.064, 192.0, 250.0, 208.0, 30.0, 128.0, 254.0, 0.0, 0.0, 0.0, 0.0, 1.7184655261243012E9, 0.0, 2024-06-15 10:32:06.124
162.0, -109536.71300848878, -46331.96995639443, 17094.86002860785, -92840.5633974747, 51829.537967388394, -163532.42558627436, -118172.48829275231, -187500.02235174447, -0.166, 0.976, -0.064, 192.0, 0.0, 0.0, 0.0, 0.0, 0.0, 0.0, 0.0, 0.0, 0.0, 1.7184655261243105E9, 0.0, 2024-06-15 10:32:06.124
163.0, -106224.60916335693, -41528.960052604685, 20338.276963028547, -91064.11380340027, 52951.75200125599, -162214.96906458965, -116696.44614415719, -187500.02235174447, -0.166, 0.976, -0.064, 192.0, 0.0, 0.0, 0.0, 0.0, 0.0, 0.0, 0.0, 0.0, 0.0, 1.7184655261243193E9, 0.0, 2024-06-15 10:32:06.124
164.0, -110611.27312317767, -47240.88129292504, 16169.542511647049, -93406.8448432499, 50055.12238205939, -163992.49154239794, -118652.96139156359, -187500.02235174447, -0.166, 0.976, -0.064, 192.0, 0.0, 0.0, 0.0, 0.0, 0.0, 0.0, 0.0, 0.0, 0.0, 1.7184655261243286E9, 0.0, 2024-06-15 10:32:06.124
165.0, -114755.51006263615, -53438.57299549258, 12170.144876258955, -95740.81399927307, 48452.74817380288, -165680.4058766849, -120527.33397809674, -187500.02235174447, -0.166, 0.976, -0.064, 192.0, 0.0, 0.0, 0.0, 0.0, 0.0, 0.0, 0.0, 0.0, 0.0, 1.718465526124338E9, 0.0, 2024-06-15 10:32:06.124
166.0, -110608.6579690764, -47775.26679936252, 16152.130502716363, -93460.33256773146, 51270.49848681671, -163928.40909104457, -118628.57563836285, -187500.02235174447, -0.166, 0.976, -0.064, 192.0, 0.0, 0.0, 0.0, 0.0, 0.0, 0.0, 0.0, 0.0, 0.0, 1.7184655261243467E9, 0.0, 2024-06-15 10:32:06.124
167.0, -106276.44285874878, -41602.13966395136, 20365.546091264023, -91173.70440646463, 53059.934444419676, -162240.22653582413, -116740.7025981787, -187500.02235174447, -0.166, 0.976, -0.064, 192.0, 0.0, 0.0, 0.0, 0.0, 0.0, 0.0, 0.0, 0.0, 0.0, 1.718465526124356E9, 0.0, 2024-06-15 10:32:06.124
168.0, -109608.55151516815, -45752.67979534624, 17221.929695836272, -92946.57772142622, 50601.68958922501, -163609.1591249894, -118242.60571510861, -187500.02235174447, -0.166, 0.976, -0.064, 192.0, 0.0, 0.0, 0.0, 0.0, 0.0, 0.0, 0.0, 0.0, 0.0, 1.718465526124365E9, 0.0, 2024-06-15 10:32:06.124
169.0, -114721.31189361954, -53229.606536579915, 12300.232028988843, -95812.5630989746, 48331.15468396601, -165707.25032177573, -120563.54380411432, -187500.02235174447, -0.166, 0.976, -0.064, 192.0, 0.0, 0.0, 0.0, 0.0, 0.0, 0.0, 0.0, 0.0, 0.0, 1.718465526124374E9, 0.0, 2024-06-15 10:32:06.124
170.0, -111875.37603084756, -49422.769179674295, 15019.522907677045, -94266.58234197884, 50614.787711475816, -164510.89555154988, -119278.94434677892, -187500.02235174447, -0.166, 0.976, -0.064, 192.0, 0.0, 0.0, 0.0, 0.0, 0.0, 0.0, 0.0, 0.0, 0.0, 1.718465526124383E9, 0.0, 2024-06-15 10:32:06.124
171.0, -106659.26118603483, -42096.62730653612, 20072.15709354366, -91484.50541311568, 53067.10935438983, -162431.26689568366, -116970.97026955728, -187500.02235174447, -0.166, 0.976, -0.07, 192.0, 250.0, 208.0, 30.0, 128.0, 253.0, 208.0, 0.0, 0.0, 0.0, 1.7184655261243927E9, 0.0, 2024-06-15 10:32:06.124
172.0, -108650.15341641348, -44389.53630799488, 18223.6007718564, -92513.24445167118, 51225.34796301699, -163236.35437921935, -117849.93026851777, -187500.02235174447, -0.166, 0.976, -0.07, 192.0, 0.0, 0.0, 0.0, 0.0, 0.0, 0.0, 0.0, 0.0, 0.0, 1.718465526124402E9, 0.0, 2024-06-15 10:32:06.124
173.0, -114319.24871435747, -52543.16211261298, 12779.207560921617, -95651.8317045965, 48441.371135875124, -165542.8755930514, -120397.35858408912, -187500.02235174447, -0.166, 0.976, -0.07, 192.0, 0.0, 0.0, 0.0, 0.0, 0.0, 0.0, 0.0, 0.0, 0.0, 1.718465526124411E9, 0.0, 2024-06-15 10:32:06.124
174.0, -112908.94304620542, -50831.15259780319, 14113.27142873662, -94889.61486692606, 50025.5063206561, -164919.23957100388, -119744.82175646088, -187500.02235174447, -0.166, 0.976, -0.07, 192.0, 0.0, 0.0, 0.0, 0.0, 0.0, 0.0, 0.0, 0.0, 0.0, 1.71846552612442E9, 0.0, 2024-06-15 10:32:06.124
175.0, -107158.08506704391, -42788.860832316976, 19667.545815413694, -91796.84869013414, 52954.9483007131, -162597.25095000875, -117176.82983599066, -187500.02235174447, -0.166, 0.976, -0.07, 192.0, 0.0, 0.0, 0.0, 0.0, 0.0, 0.0, 0.0, 0.0, 0.0, 1.7184655261244495E9, 0.0, 2024-06-15 10:32:06.124
176.0, -107751.4344753545, -43167.45467990097, 19163.245757013054, -92087.0860918863, 51813.71293231403, -162850.0938832872, -117439.5745920628, -187500.02235174447, -0.166, 0.976, -0.07, 192.0, 0.0, 0.0, 0.0, 0.0, 0.0, 0.0, 0.0, 0.0, 0.0, 1.7184655261244593E9, 0.0, 2024-06-15 10:32:06.124
177.0, -113697.06555569955, -51523.58728928415, 13468.222435500913, -95385.19774498913, 48677.40555732317, -165310.10452629384, -120145.70029326681, -187500.02235174447, -0.166, 0.976, -0.07, 192.0, 0.0, 0.0, 0.0, 0.0, 0.0, 0.0, 0.0, 0.0, 0.0, 1.7184655261244693E9, 0.0, 2024-06-15 10:32:06.124
178.0, -113870.91742407292, -52108.040703301514, 13281.25009313227, -95511.5968598839, 49458.39786033605, -165347.0743116229, -120219.34929124705, -187500.02235174447, -0.166, 0.976, -0.07, 192.0, 0.0, 0.0, 0.0, 0.0, 0.0, 0.0, 0.0, 0.0, 0.0, 1.7184655261244795E9, 0.0, 2024-06-15 10:32:06.124
179.0, -107972.9849663955, -43865.54436272912, 18965.61163253923, -92315.40916149726, 52683.21814336994, -162938.5620878413, -117571.18166341564, -187500.02235174447, -0.166, 0.976, -0.07, 192.0, 0.0, 0.0, 0.0, 0.0, 0.0, 0.0, 0.0, 0.0, 0.0, 1.718465526124489E9, 0.0, 2024-06-15 10:32:06.124
180.0, -107114.27564791152, -42288.04764605137, 19855.21106186045, -91831.94092892898, 52320.47168260476, -162608.98561584778, -117188.09511519613, -187500.02235174447, -0.166, 0.976, -0.07, 192.0, 0.0, 0.0, 0.0, 0.0, 0.0, 0.0, 0.0, 0.0, 0.0, 1.7184655261244986E9, 0.0, 2024-06-15 10:32:06.124
181.0, -112863.27843228322, -50212.121035113465, 14363.879187569522, -94990.37653093059, 49072.00325393716, -164979.70103975548, -119793.19093146217, -187500.02235174447, -0.158, 0.98, -0.074, 192.0, 251.0, 16.0, 30.0, 160.0, 253.0, 176.0, 0.0, 0.0, 0.0, 1.718465526124525E9, 0.0, 2024-06-15 10:32:06.124
182.0, -114615.40932839029, -53071.84792421436, 12660.586853097302, -96005.90568851301, 48988.60889537441, -165681.0540772741, -120589.69534512704, -187500.02235174447, -0.158, 0.98, -0.074, 192.0, 0.0, 0.0, 0.0, 0.0, 0.0, 0.0, 0.0, 0.0, 0.0, 1.718465526124536E9, 0.0, 2024-06-15 10:32:06.124
183.0, -108960.77560910888, -45180.94452392394, 18098.96744477361, -92915.0841134887, 52284.083042631515, -163338.97123801368, -118026.33023575906, -187500.02235174447, -0.158, 0.98, -0.074, 192.0, 0.0, 0.0, 0.0, 0.0, 0.0, 0.0, 0.0, 0.0, 0.0, 1.7184655261245453E9, 0.0, 2024-06-15 10:32:06.124
184.0, -106737.55934686177, -41771.14120377794, 20294.936930529708, -91733.66030855899, 52715.628172830126, -162490.11903883447, -117063.77471253571, -187500.02235174447, -0.158, 0.98, -0.074, 192.0, 0.0, 0.0, 0.0, 0.0, 0.0, 0.0, 0.0, 0.0, 0.0, 1.7184655261245544E9, 0.0, 2024-06-15 10:32:06.124
185.0, -111913.44105165495, -48746.00306105651, 15367.51721710172, -94550.13657213886, 49579.14198388362, -164617.44631736833, -119400.71665057143, -187500.02235174447, -0.158, 0.98, -0.074, 192.0, 0.0, 0.0, 0.0, 0.0, 0.0, 0.0, 0.0, 0.0, 0.0, 1.7184655261245644E9, 0.0, 2024-06-15 10:32:06.124
186.0, -115094.25074985634, -53654.9155300755, 12295.761680097781, -96359.26441660697, 48639.519350471426, -165906.18084742795, -120841.04071152696, -187500.02235174447, -0.158, 0.98, -0.074, 192.0, 0.0, 0.0, 0.0, 0.0, 0.0, 0.0, 0.0, 0.0, 0.0, 1.7184655261245744E9, 0.0, 2024-06-15 10:32:06.124
187.0, -110141.97589659404, -46741.99035668258, 17047.74255129606, -93652.51286655819, 51766.416641046606, -163855.09536923116, -118608.01203346397, -187500.02235174447, -0.158, 0.98, -0.074, 192.0, 0.0, 0.0, 0.0, 0.0, 0.0, 0.0, 0.0, 0.0, 0.0, 1.718465526124584E9, 0.0, 2024-06-15 10:32:06.124
188.0, -106616.7705198253, -41611.50504487813, 20485.686717711298, -91770.22776248786, 53005.86557458229, -162465.01802981115, -117053.44820659736, -187500.02235174447, -0.158, 0.98, -0.074, 192.0, 0.0, 0.0, 0.0, 0.0, 0.0, 0.0, 0.0, 0.0, 0.0, 1.7184655261245933E9, 0.0, 2024-06-15 10:32:06.124
189.0, -110848.64864929303, -47164.058347232145, 16476.834294418608, -94028.06687689625, 50188.58464820202, -164173.11598934126, -118930.88298212088, -187500.02235174447, -0.158, 0.98, -0.074, 192.0, 0.0, 0.0, 0.0, 0.0, 0.0, 0.0, 0.0, 0.0, 0.0, 1.7184655261246028E9, 0.0, 2024-06-15 10:32:06.124
190.0, -115254.55746108979, -53779.101822269186, 12235.769597979737, -96518.2300231731, 48456.547970360276, -165981.64033670907, -120929.95595097018, -187500.02235174447, -0.158, 0.98, -0.074, 192.0, 0.0, 0.0, 0.0, 0.0, 0.0, 0.0, 0.0, 0.0, 0.0, 1.7184655261246116E9, 0.0, 2024-06-15 10:32:06.124
191.0, -111326.26072481403, -48339.53658813675, 15993.097840916855, -94360.68318613568, 51198.57057315953, -164338.18362214373, -119151.78527257268, -187500.02235174447, -0.16, 0.972, -0.068, 192.0, 251.0, 0.0, 30.0, 96.0, 253.0, 224.0, 0.0, 0.0, 0.0, 1.718465526124621E9, 0.0, 2024-06-15 10:32:06.124
192.0, -106726.24936416738, -41777.28793350315, 20454.126054540404, -91899.2867349728, 53156.73984965561, -162505.92172216438, -117113.41793697095, -187500.02235174447, -0.16, 0.972, -0.068, 192.0, 0.0, 0.0, 0.0, 0.0, 0.0, 0.0, 0.0, 0.0, 0.0, 1.71846552612463E9, 0.0, 2024-06-15 10:32:06.124
193.0, -109816.28862813576, -45663.92101811421, 17548.198109650388, -93530.89702497686, 50812.57829816083, -163755.27247849375, -118481.50115984693, -187500.02235174447, -0.16, 0.972, -0.068, 192.0, 0.0, 0.0, 0.0, 0.0, 0.0, 0.0, 0.0, 0.0, 0.0, 1.718465526124639E9, 0.0, 2024-06-15 10:32:06.124
194.0, -115134.9756282539, -53480.84014425756, 12436.421207955029, -96525.18141569871, 48411.330391327196, -165952.35955147262, -120905.07845939141, -187500.02235174447, -0.16, 0.972, -0.068, 192.0, 0.0, 0.0, 0.0, 0.0, 0.0, 0.0, 0.0, 0.0, 0.0, 1.718465526124648E9, 0.0, 2024-06-15 10:32:06.124
195.0, -112540.29572490403, -49974.007901431076, 14904.992569088052, -95115.21102371348, 50577.08031857971, -164862.7120092764, -119742.20660235961, -187500.02235174447, -0.16, 0.972, -0.068, 192.0, 0.0, 0.0, 0.0, 0.0, 0.0, 0.0, 0.0, 0.0, 0.0, 1.7184655261246777E9, 0.0, 2024-06-15 10:32:06.124
196.0, -107144.91988955974, -42334.874550685236, 20118.380501077238, -92219.1178463838, 53147.396820473296, -162696.93973027944, -117342.63507636012, -187500.02235174447, -0.16, 0.972, -0.068, 192.0, 0.0, 0.0, 0.0, 0.0, 0.0, 0.0, 0.0, 0.0, 0.0, 1.7184655261246872E9, 0.0, 2024-06-15 10:32:06.124
197.0, -108908.07019568328, -44349.41492669761, 18494.19099023235, -93134.39943008417, 51424.94904100288, -163414.58718950598, -118119.51465839324, -187500.02235174447, -0.16, 0.972, -0.068, 192.0, 0.0, 0.0, 0.0, 0.0, 0.0, 0.0, 0.0, 0.0, 0.0, 1.7184655261246994E9, 0.0, 2024-06-15 10:32:06.124
198.0, -114736.91341124933, -52764.578493187255, 12908.087719450918, -96382.66669305167, 48549.79944822782, -165809.8448288256, -120754.13712908473, -187500.02235174447, -0.16, 0.972, -0.068, 192.0, 0.0, 0.0, 0.0, 0.0, 0.0, 0.0, 0.0, 0.0, 0.0, 1.718465526124709E9, 0.0, 2024-06-15 10:32:06.124
199.0, -113612.79947910304, -51437.51072138676, 13958.798522805993, -95776.93441831284, 49996.24788716411, -165304.18131401317, -120233.47559374281, -187500.02235174447, -0.16, 0.972, -0.068, 192.0, 0.0, 0.0, 0.0, 0.0, 0.0, 0.0, 0.0, 0.0, 0.0, 1.7184655261247334E9, 0.0, 2024-06-15 10:32:06.124
200.0, -107753.24496665537, -43173.80257532628, 19602.792811726667, -92610.22867086277, 53003.652751881214, -162922.89351497812, -117612.24181798004, -187500.02235174447, -0.16, 0.972, -0.068, 192.0, 0.0, 0.0, 0.0, 0.0, 0.0, 0.0, 0.0, 0.0, 0.0, 1.7184655261247423E9, 0.0, 2024-06-15 10:32:06.124
201.0, -108094.9137323992, -43224.8539596622, 19342.2161748667, -92774.15636469798, 51990.49287921106, -163079.6015953543, -117770.20159604569, -187500.02235174447, -0.16, 0.972, -0.068, 192.0, 0.0, 0.0, 0.0, 0.0, 0.0, 0.0, 0.0, 0.0, 0.0, 1.718465526124751E9, 0.0, 2024-06-15 10:32:06.124
202.0, -114087.28231040029, -51702.53535539334, 13613.93345760506, -96102.44287281547, 48811.76189324402, -165558.6782763813, -120493.91812013605, -187500.02235174447, -0.156, 0.974, -0.066, 192.0, 251.0, 32.0, 30.0, 112.0, 253.0, 240.0, 0.0, 0.0, 0.0, 1.7184655261247604E9, 0.0, 2024-06-15 10:32:06.124
203.0, -114589.86128447787, -52741.89147256511, 13105.408919502368, -96421.20110049262, 49427.70891519891, -165744.80125246063, -120730.86896310675, -187500.02235174447, -0.156, 0.974, -0.066, 192.0, 0.0, 0.0, 0.0, 0.0, 0.0, 0.0, 0.0, 0.0, 0.0, 1.7184655261247694E9, 0.0, 2024-06-15 10:32:06.124
204.0, -108629.54510802569, -44344.16226675061, 18835.077444920236, -93159.25456991847, 52703.80410001327, -163280.72259196313, -118031.94052361733, -187500.02235174447, -0.156, 0.974, -0.066, 192.0, 0.0, 0.0, 0.0, 0.0, 0.0, 0.0, 0.0, 0.0, 0.0, 1.7184655261247785E9, 0.0, 2024-06-15 10:32:06.124
205.0, -107515.377702162, -42414.82674060187, 19968.802627182322, -92549.87896083343, 52481.24778047178, -162858.4981392024, -117545.27599159193, -187500.02235174447, -0.156, 0.974, -0.066, 192.0, 0.0, 0.0, 0.0, 0.0, 0.0, 0.0, 0.0, 0.0, 0.0, 1.718465526124787E9, 0.0, 2024-06-15 10:32:06.124
206.0, -113231.16579427313, -50344.08573437759, 14521.838965635177, -95693.87533591692, 49233.382848904475, -165210.92983614563, -120129.85290644801, -187500.02235174447, -0.156, 0.974, -0.066, 192.0, 0.0, 0.0, 0.0, 0.0, 0.0, 0.0, 0.0, 0.0, 0.0, 1.718465526124796E9, 0.0, 2024-06-15 10:32:06.124
207.0, -115313.29784551835, -53683.54811472275, 12505.242229132919, -96904.62462957199, 48976.047214990525, -166061.25725045888, -121092.72135409372, -187500.02235174447, -0.156, 0.974, -0.066, 192.0, 0.0, 0.0, 0.0, 0.0, 0.0, 0.0, 0.0, 0.0, 0.0, 1.7184655261248052E9, 0.0, 2024-06-15 10:32:06.124
208.0, -109714.00704550828, -45777.28906599153, 17875.04766882034, -93830.2986419557, 52272.86246691495, -163738.3522079411, -118561.07337010783, -187500.02235174447, -0.156, 0.974, -0.066, 192.0, 0.0, 0.0, 0.0, 0.0, 0.0, 0.0, 0.0, 0.0, 0.0, 1.7184655261248145E9, 0.0, 2024-06-15 10:32:06.124
209.0, -107204.01790189957, -41966.98718869534, 20341.272096785557, -92489.61865778192, 52867.552979892855, -162763.6596874785, -117463.69212433006, -187500.02235174447, -0.156, 0.974, -0.066, 192.0, 0.0, 0.0, 0.0, 0.0, 0.0, 0.0, 0.0, 0.0, 0.0, 1.718465526124823E9, 0.0, 2024-06-15 10:32:06.124
210.0, -112256.07094241036, -48830.82793126439, 15546.174710532989, -95235.7763333054, 49774.98796880102, -164827.9997501373, -119727.47680276357, -187500.02235174447, -0.156, 0.974, -0.066, 192.0, 0.0, 0.0, 0.0, 0.0, 0.0, 0.0, 0.0, 0.0, 0.0, 1.718465526124832E9, 0.0, 2024-06-15 10:32:06.124
211.0, -115730.31434182101, -54181.43322246471, 12199.358606262042, -97220.85711012568, 48676.08680440031, -166252.54347950738, -121310.04736543268, -187500.02235174447, -0.156, 0.974, -0.066, 192.0, 0.0, 0.0, 0.0, 0.0, 0.0, 0.0, 0.0, 0.0, 0.0, 1.7184655261248412E9, 0.0, 2024-06-15 10:32:06.124
212.0, -110872.40855364902, -47338.44665747245, 16844.118159308215, -94540.03358364507, 51761.07457412178, -164220.03230095297, -119104.48898130524, -187500.02235174447, -0.16, 0.974, -0.07200000000000001, 192.0, 251.0, 0.0, 30.0, 112.0, 253.0, 192.0, 0.0, 0.0, 0.0, 1.7184655261248505E9, 0.0, 2024-06-15 10:32:06.124
213.0, -107071.20383634613, -41812.648393231444, 20538.839166026017, -92489.66336127084, 53144.15581752727, -162695.26334944527, -117406.47165852448, -187500.02235174447, -0.16, 0.974, -0.07200000000000001, 192.0, 0.0, 0.0, 0.0, 0.0, 0.0, 0.0, 0.0, 0.0, 0.0, 1.718465526124859E9, 0.0, 2024-06-15 10:32:06.124
214.0, -111153.6382023857, -47191.685103378906, 16685.17490448653, -94679.97785567974, 50386.8446215206, -164354.96978222966, -119225.25545659727, -187500.02235174447, -0.16, 0.974, -0.07200000000000001, 192.0, 0.0, 0.0, 0.0, 0.0, 0.0, 0.0, 0.0, 0.0, 0.0, 1.7184655261248684E9, 0.0, 2024-06-15 10:32:06.124
215.0, -115819.29663649759, -54190.06099582446, 12211.964990134835, -97337.35440222675, 48523.446741515014, -166298.6104248298, -121367.89368008301, -187500.02235174447, -0.16, 0.974, -0.07200000000000001, 192.0, 0.0, 0.0, 0.0, 0.0, 0.0, 0.0, 0.0, 0.0, 0.0, 1.7184655261248777E9, 0.0, 2024-06-15 10:32:06.124
216.0, -112066.1481697736, -48945.87235997586, 15794.167315264622, -95263.35838596325, 51194.614314390936, -164718.31974009512, -119665.8977467892, -187500.02235174447, -0.16, 0.974, -0.07200000000000001, 192.0, 0.0, 0.0, 0.0, 0.0, 0.0, 0.0, 0.0, 0.0, 0.0, 1.7184655261248865E9, 0.0, 2024-06-15 10:32:06.124
217.0, -107248.16259719881, -42045.50886696683, 20450.303906238547, -92666.24214246776, 53265.16816200831, -162779.84235046417, -117517.26925578943, -187500.02235174447, -0.16, 0.974, -0.07200000000000001, 192.0, 0.0, 0.0, 0.0, 0.0, 0.0, 0.0, 0.0, 0.0, 0.0, 1.718465526124895E9, 0.0, 2024-06-15 10:32:06.124
218.0, -110142.71350416107, -45679.99192237758, 17738.433806709505, -94208.87013779524, 51007.06082666646, -163965.28946939582, -118809.33419577291, -187500.02235174447, -0.16, 0.974, -0.07200000000000001, 192.0, 0.0, 0.0, 0.0, 0.0, 0.0, 0.0, 0.0, 0.0, 0.0, 1.7184655261249042E9, 0.0, 2024-06-15 10:32:06.124
219.0, -115551.41097920072, -53677.021405341795, 12567.223616507485, -97233.73171493194, 48551.43112557306, -166173.44065588005, -121241.42750995488, -187500.02235174447, -0.16, 0.974, -0.07200000000000001, 192.0, 0.0, 0.0, 0.0, 0.0, 0.0, 0.0, 0.0, 0.0, 0.0, 1.7184655261249354E9, 0.0, 2024-06-15 10:32:06.124
220.0, -113130.76175817988, -50423.00974404928, 14869.587405870845, -95884.04397774268, 50615.86059520967, -165117.477192578, -120122.32036856656, -187500.02235174447, -0.16, 0.974, -0.07200000000000001, 192.0, 0.0, 0.0, 0.0, 0.0, 0.0, 0.0, 0.0, 0.0, 0.0, 1.7184655261249452E9, 0.0, 2024-06-15 10:32:06.124
221.0, -107620.11797667957, -42570.01490235507, 20176.33857444985, -92921.36495368063, 53235.48504537166, -162906.82261071476, -117680.21347286862, -187500.02235174447, -0.16, 0.974, -0.07200000000000001, 192.0, 0.0, 0.0, 0.0, 0.0, 0.0, 0.0, 0.0, 0.0, 0.0, 1.7184655261249552E9, 0.0, 2024-06-15 10:32:06.124
222.0, -109179.75564953753, -44296.329533616256, 18745.04461825426, -93747.93246363789, 51605.059397823745, -163565.95320295732, -118389.03199303533, -187500.02235174447, -0.162, 0.972, -0.064, 192.0, 250.0, 240.0, 30.0, 96.0, 254.0, 0.0, 0.0, 0.0, 0.0, 1.7184655261249647E9, 0.0, 2024-06-15 10:32:06.124
223.0, -115056.02926683775, -52796.720301713984, 13131.918088426362, -97018.48441582733, 48697.87975524423, -165979.29340354126, -121038.7642429786, -187500.02235174447, -0.162, 0.972, -0.064, 192.0, 0.0, 0.0, 0.0, 0.0, 0.0, 0.0, 0.0, 0.0, 0.0, 1.71846552612499E9, 0.0, 2024-06-15 10:32:06.124
224.0, -114216.22952416296, -51871.40278475318, 13920.398225831776, -96572.7459278996, 50018.15259673031, -165601.52657050212, -120656.59411628178, -187500.02235174447, -0.162, 0.972, -0.064, 192.0, 0.0, 0.0, 0.0, 0.0, 0.0, 0.0, 0.0, 0.0, 0.0, 1.7184655261249993E9, 0.0, 2024-06-15 10:32:06.124
225.0, -108335.6196684384, -43541.28760591598, 19576.283642802675, -93389.38813083031, 53052.40190653824, -163216.2825126985, -118033.90747712941, -187500.02235174447, -0.162, 0.972, -0.064, 192.0, 0.0, 0.0, 0.0, 0.0, 0.0, 0.0, 0.0, 0.0, 0.0, 1.7184655261250083E9, 0.0, 2024-06-15 10:32:06.125
226.0, -108421.60682935797, -43241.036622647836, 19551.87553785748, -93413.5503665865, 52157.43805854775, -163265.90338538928, -118074.25237587123, -187500.02235174447, -0.162, 0.972, -0.064, 192.0, 0.0, 0.0, 0.0, 0.0, 0.0, 0.0, 0.0, 0.0, 0.0, 1.7184655261250172E9, 0.0, 2024-06-15 10:32:06.125
227.0, -114373.2505289615, -51642.61032850866, 13871.02322233, -96713.74073192368, 48981.74690982663, -165725.7575661847, -120773.5607950164, -187500.02235174447, -0.162, 0.972, -0.064, 192.0, 0.0, 0.0, 0.0, 0.0, 0.0, 0.0, 0.0, 0.0, 0.0, 1.718465526125026E9, 0.0, 2024-06-15 10:32:06.125
228.0, -115085.22064509639, -53019.388379977754, 13179.214379693793, -97127.11389388012, 49500.441491656486, -165976.70060118445, -121076.20341494125, -187500.02235174447, -0.162, 0.972, -0.064, 192.0, 0.0, 0.0, 0.0, 0.0, 0.0, 0.0, 0.0, 0.0, 0.0, 1.7184655261250353E9, 0.0, 2024-06-15 10:32:06.125
229.0, -109200.20749571413, -44722.01850676758, 18830.24946811789, -93918.87860523208, 52749.178141257544, -163561.7063715108, -118429.7568714329, -187500.02235174447, -0.162, 0.972, -0.064, 192.0, 0.0, 0.0, 0.0, 0.0, 0.0, 0.0, 0.0, 0.0, 0.0, 1.718465526125044E9, 0.0, 2024-06-15 10:32:06.125
230.0, -107889.38944213265, -42516.95186101817, 20138.407664109192, -93226.24274805102, 52622.39904670704, -163080.4509616436, -117877.75819036464, -187500.02235174447, -0.162, 0.972, -0.064, 192.0, 0.0, 0.0, 0.0, 0.0, 0.0, 0.0, 0.0, 0.0, 0.0, 1.7184655261250532E9, 0.0, 2024-06-15 10:32:06.125
231.0, -113478.26432922654, -50212.322200813556, 14813.037492398918, -96288.54349715037, 49413.82848189217, -165374.2316811361, -120397.0233079223, -187500.02235174447, -0.162, 0.972, -0.064, 192.0, 0.0, 0.0, 0.0, 0.0, 0.0, 0.0, 0.0, 0.0, 0.0, 1.7184655261250625E9, 0.0, 2024-06-15 10:32:06.125
232.0, -115732.16953661079, -53806.79563364931, 12647.175806424118, -97579.9825882891, 49072.874971970916, -166282.15954091068, -121416.64283474004, -187500.02235174447, -0.162, 0.968, -0.06, 192.0, 250.0, 240.0, 30.0, 64.0, 254.0, 32.0, 0.0, 0.0, 0.0, 1.7184655261250715E9, 0.0, 2024-06-15 10:32:06.125
233.0, -110261.49067419657, -46173.22786727284, 17905.289579068372, -94573.89647649485, 52334.553281611596, -164001.6110541357, -118927.57492394149, -187500.02235174447, -0.162, 0.968, -0.06, 192.0, 0.0, 0.0, 0.0, 0.0, 0.0, 0.0, 0.0, 0.0, 0.0, 1.7184655261250808E9, 0.0, 2024-06-15 10:32:06.125
234.0, -107570.5865109666, -42157.69227238802, 20533.564154334566, -93134.48883706199, 53007.02786529397, -162944.4629483775, -117739.15502299728, -187500.02235174447, -0.162, 0.968, -0.06, 192.0, 0.0, 0.0, 0.0, 0.0, 0.0, 0.0, 0.0, 0.0, 0.0, 1.71846552612509E9, 0.0, 2024-06-15 10:32:06.125
235.0, -112454.97911631812, -48650.53876048789, 15881.540284340417, -95781.42711894836, 49948.79513368549, -164949.19090857398, -119942.14295651234, -187500.02235174447, -0.162, 0.968, -0.06, 192.0, 0.0, 0.0, 0.0, 0.0, 0.0, 0.0, 0.0, 0.0, 0.0, 1.7184655261251E9, 0.0, 2024-06-15 10:32:06.125
236.0, -115999.13877238498, -54056.03993607044, 12474.709746206969, -97769.48067778119, 48791.24299183405, -166373.39936177724, -121527.26161804935, -187500.02235174447, -0.162, 0.968, -0.06, 192.0, 0.0, 0.0, 0.0, 0.0, 0.0, 0.0, 0.0, 0.0, 0.0, 1.7184655261251092E9, 0.0, 2024-06-15 10:32:06.125
237.0, -111392.62305410184, -47704.52352816147, 16903.372633859235, -95253.90359805866, 51798.066711195315, -164465.16388239432, -119447.5435552053, -187500.02235174447, -0.162, 0.968, -0.06, 192.0, 0.0, 0.0, 0.0, 0.0, 0.0, 0.0, 0.0, 0.0, 0.0, 1.718465526125118E9, 0.0, 2024-06-15 10:32:06.125
238.0, -107567.56902546514, -42191.39870302662, 20618.210210586814, -93233.73058244355, 53221.62696380937, -162973.38610570267, -117782.33859328492, -187500.02235174447, -0.162, 0.968, -0.06, 192.0, 0.0, 0.0, 0.0, 0.0, 0.0, 0.0, 0.0, 0.0, 0.0, 1.7184655261251273E9, 0.0, 2024-06-15 10:32:06.125
239.0, -111428.09527255241, -47125.18866362437, 16951.473587927056, -95285.77718565192, 50538.098876249656, -164536.77887162913, -119504.2052273995, -187500.02235174447, -0.162, 0.968, -0.06, 192.0, 0.0, 0.0, 0.0, 0.0, 0.0, 0.0, 0.0, 0.0, 0.0, 1.7184655261251364E9, 0.0, 2024-06-15 10:32:06.125
240.0, -116071.98310756483, -53990.88460098322, 12487.18201961303, -97885.79915592661, 48635.49603646947, -166431.75976655004, -121601.29059568532, -187500.02235174447, -0.162, 0.968, -0.06, 192.0, 0.0, 0.0, 0.0, 0.0, 0.0, 0.0, 0.0, 0.0, 0.0, 1.7184655261251452E9, 0.0, 2024-06-15 10:32:06.125
241.0, -112609.2285048042, -49308.64117248549, 15819.290676032386, -96005.30219141272, 51213.501538455675, -164992.48623758391, -120043.41871063934, -187500.02235174447, -0.162, 0.968, -0.06, 192.0, 0.0, 0.0, 0.0, 0.0, 0.0, 0.0, 0.0, 0.0, 0.0, 1.7184655266032417E9, 0.0, 2024-06-15 10:32:06.603
242.0, -107789.52184790633, -42510.60396559286, 20485.843179922485, -93437.75730583159, 53344.06981993554, -163071.55496735038, -117910.41408901384, -187500.02235174447, -0.162, 0.968, -0.06, 192.0, 0.0, 0.0, 0.0, 0.0, 0.0, 0.0, 0.0, 0.0, 0.0, 1.7184655266033928E9, 0.0, 2024-06-15 10:32:06.603
243.0, -110414.1083853374, -45675.99096012008, 18009.42635648565, -94800.61022050503, 51180.353901428454, -164116.20844795805, -119061.05954182858, -187500.02235174447, -0.164, 0.974, -0.062, 192.0, 250.0, 224.0, 30.0, 112.0, 254.0, 16.0, 0.0, 0.0, 0.0, 1.7184655266034343E9, 0.0, 2024-06-15 10:32:06.603
244.0, -115827.92440985733, -53496.039330487176, 12810.656465370235, -97812.4407306243, 48657.42309778012, -166330.12638451176, -121504.93222533849, -187500.02235174447, -0.164, 0.974, -0.062, 192.0, 0.0, 0.0, 0.0, 0.0, 0.0, 0.0, 0.0, 0.0, 0.0, 1.718465526603454E9, 0.0, 2024-06-15 10:32:06.603
245.0, -113714.61167509695, -50778.804812288865, 14846.878033504252, -96667.71849009019, 50622.81198773527, -165432.56973416446, -120541.97437071496, -187500.02235174447, -0.164, 0.974, -0.062, 192.0, 0.0, 0.0, 0.0, 0.0, 0.0, 0.0, 0.0, 0.0, 0.0, 1.7184655266034703E9, 0.0, 2024-06-15 10:32:06.603
246.0, -108253.32054535396, -43136.430458597, 20127.768233748466, -93757.16373409794, 53298.74048218018, -163255.91215561776, -118128.27654221971, -187500.02235174447, -0.164, 0.974, -0.062, 192.0, 0.0, 0.0, 0.0, 0.0, 0.0, 0.0, 0.0, 0.0, 0.0, 1.7184655266034873E9, 0.0, 2024-06-15 10:32:06.603
247.0, -109564.1609506799, -44463.14060248621, 18916.59425694874, -94432.70050677068, 51772.96570217201, -163798.09842087014, -118715.9709591831, -187500.02235174447, -0.164, 0.974, -0.062, 192.0, 0.0, 0.0, 0.0, 0.0, 0.0, 0.0, 0.0, 0.0, 0.0, 1.7184655266035023E9, 0.0, 2024-06-15 10:32:06.603
248.0, -115380.50954109545, -52683.70988174795, 13334.402541446989, -97653.36336533587, 48820.18850090367, -166185.01885950792, -121347.71005483986, -187500.02235174447, -0.164, 0.974, -0.062, 192.0, 0.0, 0.0, 0.0, 0.0, 0.0, 0.0, 0.0, 0.0, 0.0, 1.7184655266035173E9, 0.0, 2024-06-15 10:32:06.603
249.0, -114794.02211833265, -52180.125079169884, 13898.448812776664, -97364.1764955731, 50041.57722491947, -165921.93882726895, -121084.07122898952, -187500.02235174447, -0.164, 0.974, -0.062, 192.0, 0.0, 0.0, 0.0, 0.0, 0.0, 0.0, 0.0, 0.0, 0.0, 1.7184655266035345E9, 0.0, 2024-06-15 10:32:06.603
250.0, -108969.82806561328, -44094.49328118483, 19524.71816834428, -94224.20343449157, 53126.833215574414, -163554.6655720074, -118472.38164810916, -187500.02235174447, -0.164, 0.974, -0.062, 192.0, 0.0, 0.0, 0.0, 0.0, 0.0, 0.0, 0.0, 0.0, 0.0, 1.7184655266035492E9, 0.0, 2024-06-15 10:32:06.603
251.0, -108830.17436625653, -43466.6104276908, 19706.259036810283, -94119.95489835202, 52340.275328192154, -163504.93294059433, -118406.77927813283, -187500.02235174447, -0.164, 0.974, -0.062, 192.0, 0.0, 0.0, 0.0, 0.0, 0.0, 0.0, 0.0, 0.0, 0.0, 1.7184655266035633E9, 0.0, 2024-06-15 10:32:06.603
252.0, -114625.57937211746, -51432.28041318422, 14143.736856429203, -97295.33312265076, 49146.72513565125, -165878.68820174792, -121027.94599866224, -187500.02235174447, -0.164, 0.974, -0.062, 192.0, 0.0, 0.0, 0.0, 0.0, 0.0, 0.0, 0.0, 0.0, 0.0, 1.718465526603577E9, 0.0, 2024-06-15 10:32:06.603
253.0, -115557.33419148138, -53087.896476733265, 13243.073313602605, -97845.18603625131, 49538.75238165288, -166241.85934565775, -121452.36092237961, -187500.02235174447, -0.158, 0.974, -0.058, 192.0, 251.0, 16.0, 30.0, 112.0, 254.0, 48.0, 0.0, 0.0, 0.0, 1.7184655266035912E9, 0.0, 2024-06-15 10:32:06.603
254.0, -109797.22259011539, -45166.2594278168, 18812.14455510909, -94718.62402184296, 52810.10899664271, -163875.59191889668, -118847.73449274714, -187500.02235174447, -0.158, 0.974, -0.058, 192.0, 0.0, 0.0, 0.0, 0.0, 0.0, 0.0, 0.0, 0.0, 0.0, 1.7184655266036055E9, 0.0, 2024-06-15 10:32:06.603
255.0, -108293.44192665124, -42764.51978260515, 20310.11376501486, -93912.82128248469, 52787.19845857602, -163299.07337416094, -118190.70496448339, -187500.02235174447, -0.158, 0.974, -0.058, 192.0, 0.0, 0.0, 0.0, 0.0, 0.0, 0.0, 0.0, 0.0, 0.0, 1.7184655266036189E9, 0.0, 2024-06-15 10:32:06.603
0.0, -113731.91192530537, -50066.410013009314, 15096.79288825904, -96871.61110301151, 49572.168239613566, -165528.68223532228, -120650.44738655657, -187500.02235174447, -0.158, 0.974, -0.058, 192.0, 0.0, 0.0, 0.0, 0.0, 0.0, 0.0, 0.0, 0.0, 0.0, 1.7184655266036348E9, 0.0, 2024-06-15 10:32:06.603
1.0, -116086.8470176276, -53761.39924066058, 12818.568982907413, -98188.5758863182, 49132.24120524421, -166446.0872347459, -121686.85307346024, -187500.02235174447, -0.158, 0.974, -0.058, 192.0, 0.0, 0.0, 0.0, 0.0, 0.0, 0.0, 0.0, 0.0, 0.0, 1.7184655266036496E9, 0.0, 2024-06-15 10:32:06.603
2.0, -110811.0083116303, -46520.43986564158, 17916.241933851474, -95322.85872970328, 52357.84379933403, -164273.7211911346, -119303.59832091312, -187500.02235174447, -0.158, 0.974, -0.058, 192.0, 0.0, 0.0, 0.0, 0.0, 0.0, 0.0, 0.0, 0.0, 0.0, 1.7184655266036634E9, 0.0, 2024-06-15 10:32:06.603
3.0, -107995.47082131753, -42397.14651073772, 20674.08957172508, -93837.6970693704, 53123.14517773929, -163183.58191056037, -118075.86170147202, -187500.02235174447, -0.158, 0.974, -0.058, 192.0, 0.0, 0.0, 0.0, 0.0, 0.0, 0.0, 0.0, 0.0, 0.0, 1.718465526603693E9, 0.0, 2024-06-15 10:32:06.603
4.0, -112699.59660763701, -48544.61384351419, 16175.666889627802, -96368.58509404483, 50089.5217167761, -165101.85332320374, -120192.68366011187, -187500.02235174447, -0.158, 0.974, -0.058, 192.0, 0.0, 0.0, 0.0, 0.0, 0.0, 0.0, 0.0, 0.0, 0.0, 1.7184655266037269E9, 0.0, 2024-06-15 10:32:06.603
5.0, -116441.74801608897, -54121.86582349132, 12565.211959506507, -98485.36234919577, 48800.9660006721, -166639.7427487067, -121902.70386966514, -187500.02235174447, -0.158, 0.974, -0.058, 192.0, 0.0, 0.0, 0.0, 0.0, 0.0, 0.0, 0.0, 0.0, 0.0, 1.7184655266037557E9, 0.0, 2024-06-15 10:32:06.603
6.0, -111987.89471243558, -48068.901666271886, 16872.683688722096, -96046.02706981028, 51802.98409497549, -164778.82591233563, -119870.77383646654, -187500.02235174447, -0.158, 0.974, -0.058, 192.0, 0.0, 0.0, 0.0, 0.0, 0.0, 0.0, 0.0, 0.0, 0.0, 1.7184655266037688E9, 0.0, 2024-06-15 10:32:06.603
7.0, -107947.95101260555, -42377.521679105965, 20811.284579191753, -93880.41125302449, 53365.594549846006, -163154.16701485717, -118056.43803554036, -187500.02235174447, -0.16, 0.972, -0.052000000000000005, 192.0, 251.0, 0.0, 30.0, 96.0, 254.0, 96.0, 0.0, 0.0, 0.0, 1.718465526603782E9, 0.0, 2024-06-15 10:32:06.603
8.0, -111650.83040604954, -47041.90606378389, 17283.396993088365, -95854.53967506166, 50699.54552645034, -164663.9155940909, -119721.46418350509, -187500.02235174447, -0.16, 0.972, -0.052000000000000005, 192.0, 0.0, 0.0, 0.0, 0.0, 0.0, 0.0, 0.0, 0.0, 0.0, 1.7184655266038103E9, 0.0, 2024-06-15 10:32:06.603
9.0, -116453.19210925009, -54002.172231933146, 12646.371143623728, -98559.6148442763, 48660.15001060367, -166654.11492039144, -121925.34618679837, -187500.02235174447, -0.16, 0.972, -0.052000000000000005, 192.0, 0.0, 0.0, 0.0, 0.0, 0.0, 0.0, 0.0, 0.0, 0.0, 1.7184655266038232E9, 0.0, 2024-06-15 10:32:06.603
10.0, -113145.13392986465, -49600.890231238634, 15849.75610372497, -96742.90975843785, 51210.39464597638, -165254.73925527802, -120405.74048825986, -187500.02235174447, -0.16, 0.972, -0.052000000000000005, 192.0, 0.0, 0.0, 0.0, 0.0, 0.0, 0.0, 0.0, 0.0, 0.0, 1.7184655266038356E9, 0.0, 2024-06-15 10:32:06.603
11.0, -108234.56743175596, -42779.8977827904, 20629.587248514563, -94128.24739554494, 53439.84704492653, -163299.54276079452, -118223.47262185486, -187500.02235174447, -0.16, 0.972, -0.052000000000000005, 192.0, 0.0, 0.0, 0.0, 0.0, 0.0, 0.0, 0.0, 0.0, 0.0, 1.7184655266038485E9, 0.0, 2024-06-15 10:32:06.603
12.0, -110725.04350245518, -45713.519539060544, 18270.606490445913, -95447.44735329716, 51316.118397249986, -164330.11464239535, -119354.62735350459, -187500.02235174447, -0.16, 0.972, -0.052000000000000005, 192.0, 0.0, 0.0, 0.0, 0.0, 0.0, 0.0, 0.0, 0.0, 0.0, 1.718465526603861E9, 0.0, 2024-06-15 10:32:06.603
13.0, -116156.18212892798, -53403.79368112012, 13013.990284680163, -98455.76863953694, 48704.47351985855, -166545.6642562943, -121815.17443837816, -187500.02235174447, -0.16, 0.972, -0.052000000000000005, 192.0, 0.0, 0.0, 0.0, 0.0, 0.0, 0.0, 0.0, 0.0, 0.0, 1.7184655266038735E9, 0.0, 2024-06-15 10:32:06.603
14.0, -114195.73297449744, -50949.996823072055, 14912.748624414042, -97373.69833871107, 50625.78476974783, -165683.37865869745, -120891.3321365514, -187500.02235174447, -0.16, 0.972, -0.052000000000000005, 192.0, 0.0, 0.0, 0.0, 0.0, 0.0, 0.0, 0.0, 0.0, 0.0, 1.718465526603886E9, 0.0, 2024-06-15 10:32:06.603
15.0, -108715.48756545635, -43474.16531731669, 20263.800950503464, -94453.17470469174, 53404.66539915388, -163493.086516033, -118445.04546464032, -187500.02235174447, -0.16, 0.972, -0.052000000000000005, 192.0, 0.0, 0.0, 0.0, 0.0, 0.0, 0.0, 0.0, 0.0, 0.0, 1.7184655266038988E9, 0.0, 2024-06-15 10:32:06.603
16.0, -109862.17675950252, -44615.937127582685, 19211.27965584751, -95045.69709845747, 51943.353050154816, -163971.4138473766, -118961.28135458009, -187500.02235174447, -0.16, 0.972, -0.052000000000000005, 192.0, 0.0, 0.0, 0.0, 0.0, 0.0, 0.0, 0.0, 0.0, 0.0, 1.7184655266039116E9, 0.0, 2024-06-15 10:32:06.603
17.0, -115627.60807604887, -52530.6004322291, 13599.82950685376, -98219.15307273305, 48857.85119031086, -166326.0583670209, -121583.3421448877, -187500.02235174447, -0.158, 0.974, -0.06, 192.0, 251.0, 16.0, 30.0, 112.0, 254.0, 32.0, 0.0, 0.0, 0.0, 1.7184655266039245E9, 0.0, 2024-06-15 10:32:06.603
18.0, -115185.37881200062, -52196.95594274473, 14002.429127982752, -97995.25564852425, 49985.250828892094, -166103.54675096832, -121370.08415103963, -187500.02235174447, -0.158, 0.974, -0.06, 192.0, 0.0, 0.0, 0.0, 0.0, 0.0, 0.0, 0.0, 0.0, 0.0, 1.718465526603937E9, 0.0, 2024-06-15 10:32:06.603
19.0, -109358.50254994661, -44357.416851212605, 19737.439720325438, -94834.16018893245, 53264.51996141911, -163713.65353031797, -118705.97972941159, -187500.02235174447, -0.158, 0.974, -0.06, 192.0, 0.0, 0.0, 0.0, 0.0, 0.0, 0.0, 0.0, 0.0, 0.0, 1.7184655266039495E9, 0.0, 2024-06-15 10:32:06.603
20.0, -109074.05425000838, -43619.384601042824, 20095.35820428827, -94660.88946591491, 52577.293226396236, -163619.8656105835, -118578.84300694978, -187500.02235174447, -0.158, 0.974, -0.06, 192.0, 0.0, 0.0, 0.0, 0.0, 0.0, 0.0, 0.0, 0.0, 0.0, 1.7184655266039913E9, 0.0, 2024-06-15 10:32:06.603
21.0, -114876.70122107283, -51359.48078149329, 14432.052008158209, -97867.15780105088, 49187.71823498228, -166031.97646522243, -121263.51103347672, -187500.02235174447, -0.158, 0.974, -0.06, 192.0, 0.0, 0.0, 0.0, 0.0, 0.0, 0.0, 0.0, 0.0, 0.0, 1.718465526604005E9, 0.0, 2024-06-15 10:32:06.604
22.0, -115970.01444935972, -53170.97791087365, 13325.864175065062, -98502.21556451506, 49445.92558692999, -166444.27674344502, -121755.67409463813, -187500.02235174447, -0.158, 0.974, -0.06, 192.0, 0.0, 0.0, 0.0, 0.0, 0.0, 0.0, 0.0, 0.0, 0.0, 1.7184655266040342E9, 0.0, 2024-06-15 10:32:06.604
23.0, -110295.17475309072, -45548.250740558, 18909.329940000767, -95423.66509719672, 52885.456727201556, -164118.35421542576, -119168.10204602506, -187500.02235174447, -0.158, 0.974, -0.06, 192.0, 0.0, 0.0, 0.0, 0.0, 0.0, 0.0, 0.0, 0.0, 0.0, 1.7184655266040473E9, 0.0, 2024-06-15 10:32:06.604
24.0, -108641.01155293126, -43035.84760854812, 20605.849695903027, -94542.67108949079, 53033.40292375123, -163495.3887457119, -118444.35256056221, -187500.02235174447, -0.158, 0.974, -0.06, 192.0, 0.0, 0.0, 0.0, 0.0, 0.0, 0.0, 0.0, 0.0, 0.0, 1.7184655266040604E9, 0.0, 2024-06-15 10:32:06.604
25.0, -113985.00072777281, -50019.314887441986, 15408.264447243744, -97451.03537452643, 49697.717988219025, -165691.40293495692, -120888.26994756103, -187500.02235174447, -0.158, 0.974, -0.06, 192.0, 0.0, 0.0, 0.0, 0.0, 0.0, 0.0, 0.0, 0.0, 0.0, 1.7184655266040895E9, 0.0, 2024-06-15 10:32:06.604
26.0, -116585.17916025867, -53884.78087005387, 12820.468881186114, -98948.24462512071, 49029.69140168326, -166757.4023315194, -122102.90844475133, -187500.02235174447, -0.158, 0.974, -0.06, 192.0, 0.0, 0.0, 0.0, 0.0, 0.0, 0.0, 0.0, 0.0, 0.0, 1.718465526604118E9, 0.0, 2024-06-15 10:32:06.604
27.0, -111406.9952257866, -46945.0783068035, 17906.49657326896, -96119.67606779053, 52413.85727093903, -164609.86907599797, -119731.05308187641, -187500.02235174447, -0.158, 0.974, -0.06, 192.0, 0.0, 0.0, 0.0, 0.0, 0.0, 0.0, 0.0, 0.0, 0.0, 1.7184655266041548E9, 0.0, 2024-06-15 10:32:06.604
28.0, -108381.79837248307, -42690.73667415818, 20937.90721153107, -94486.21058299669, 53407.526422444156, -163399.0080236206, -118361.67345782203, -187500.02235174447, -0.16, 0.976, -0.06, 192.0, 251.0, 0.0, 30.0, 128.0, 254.0, 32.0, 0.0, 0.0, 0.0, 1.7184655266041684E9, 0.0, 2024-06-15 10:32:06.604
29.0, -112980.55803544022, -48569.7148525375, 16490.73707946981, -96968.97530185882, 50300.43277745638, -165289.31740395038, -120462.67038138752, -187500.02235174447, -0.16, 0.976, -0.06, 192.0, 0.0, 0.0, 0.0, 0.0, 0.0, 0.0, 0.0, 0.0, 0.0, 1.7184655266041815E9, 0.0, 2024-06-15 10:32:06.604
30.0, -116889.16288485086, -54221.688714228716, 12632.513062061438, -99192.43743329495, 48773.22748580307, -166905.8402664471, -122279.5095776927, -187500.02235174447, -0.16, 0.976, -0.06, 192.0, 0.0, 0.0, 0.0, 0.0, 0.0, 0.0, 0.0, 0.0, 0.0, 1.7184655266042104E9, 0.0, 2024-06-15 10:32:06.604
31.0, -112516.3570065924, -48368.28093150627, 16909.608770562267, -96767.42962210532, 51861.16568579265, -165047.09154928822, -120242.55040199166, -187500.02235174447, -0.16, 0.976, -0.06, 192.0, 0.0, 0.0, 0.0, 0.0, 0.0, 0.0, 0.0, 0.0, 0.0, 1.718465526604239E9, 0.0, 2024-06-15 10:32:06.604
32.0, -108327.48363345666, -42581.41429202727, 21065.17804445959, -94513.41265599879, 53635.51421588829, -163367.7602848721, -118347.59185881518, -187500.02235174447, -0.16, 0.976, -0.06, 192.0, 0.0, 0.0, 0.0, 0.0, 0.0, 0.0, 0.0, 0.0, 0.0, 1.7184655266042514E9, 0.0, 2024-06-15 10:32:06.604
33.0, -111858.23224285034, -47000.51063305267, 17698.178314945497, -96392.16618444517, 50997.31546608394, -164806.83264813814, -119933.89516280833, -187500.02235174447, -0.16, 0.976, -0.06, 192.0, 0.0, 0.0, 0.0, 0.0, 0.0, 0.0, 0.0, 0.0, 0.0, 1.7184655266042645E9, 0.0, 2024-06-15 10:32:06.604
34.0, -116807.2660931666, -54138.629631832795, 12872.21316960015, -99177.43941276544, 48750.451058203114, -166842.40601568294, -122200.45145755429, -187500.02235174447, -0.16, 0.976, -0.06, 192.0, 0.0, 0.0, 0.0, 0.0, 0.0, 0.0, 0.0, 0.0, 0.0, 1.7184655266042771E9, 0.0, 2024-06-15 10:32:06.604
35.0, -113637.02877009258, -49883.55039162045, 15942.359381003307, -97406.46599608255, 51248.70553597278, -165473.1605020953, -120722.39765195819, -187500.02235174447, -0.16, 0.976, -0.06, 192.0, 0.0, 0.0, 0.0, 0.0, 0.0, 0.0, 0.0, 0.0, 0.0, 1.7184655266042907E9, 0.0, 2024-06-15 10:32:06.604
36.0, -108533.45495861233, -42790.112530006474, 20939.2930196873, -94664.82337293905, 53644.43256192596, -163425.0254541666, -118437.06589186977, -187500.02235174447, -0.16, 0.976, -0.06, 192.0, 0.0, 0.0, 0.0, 0.0, 0.0, 0.0, 0.0, 0.0, 0.0, 1.7184655266043036E9, 0.0, 2024-06-15 10:32:06.604
37.0, -110844.2677073798, -45532.22453978354, 18761.94253706247, -95909.03322804371, 51587.35681621514, -164398.66744263977, -119501.43361108705, -187500.02235174447, -0.16, 0.976, -0.06, 192.0, 0.0, 0.0, 0.0, 0.0, 0.0, 0.0, 0.0, 0.0, 0.0, 1.718465526604316E9, 0.0, 2024-06-15 10:32:06.604
38.0, -116550.84688077532, -53709.36437956863, 13209.836269597563, -99128.31027845267, 48744.66195638919, -166763.0573228666, -122124.20965721723, -187500.02235174447, -0.162, 0.974, -0.07, 192.0, 250.0, 240.0, 30.0, 112.0, 253.0, 208.0, 0.0, 0.0, 0.0, 1.7184655266043289E9, 0.0, 2024-06-15 10:32:06.604
39.0, -114824.77811870315, -51496.11699534857, 14854.74584755252, -98151.33788005565, 50548.648899632564, -165978.17581631851, -121298.58092052709, -187500.02235174447, -0.162, 0.974, -0.07, 192.0, 0.0, 0.0, 0.0, 0.0, 0.0, 0.0, 0.0, 0.0, 0.0, 1.7184655266043427E9, 0.0, 2024-06-15 10:32:06.604
40.0, -109073.31664244135, -43449.19841876011, 20478.064772852038, -95024.26177552484, 53537.81474087414, -163647.64882894146, -118705.91267417821, -187500.02235174447, -0.162, 0.974, -0.07, 192.0, 0.0, 0.0, 0.0, 0.0, 0.0, 0.0, 0.0, 0.0, 0.0, 1.7184655266043556E9, 0.0, 2024-06-15 10:32:06.604
41.0, -109952.34369663522, -44255.58230347423, 19703.17449607545, -95489.96037125116, 52217.22897496569, -164038.08910108675, -119116.04483318864, -187500.02235174447, -0.162, 0.974, -0.07, 192.0, 0.0, 0.0, 0.0, 0.0, 0.0, 0.0, 0.0, 0.0, 0.0, 1.7184655266043692E9, 0.0, 2024-06-15 10:32:06.604
42.0, -115998.22235086231, -52813.79703447784, 13838.479082403075, -98895.89683960639, 48963.35142413991, -166556.59425933292, -121903.01679408751, -187500.02235174447, -0.162, 0.974, -0.07, 192.0, 0.0, 0.0, 0.0, 0.0, 0.0, 0.0, 0.0, 0.0, 0.0, 1.718465526604382E9, 0.0, 2024-06-15 10:32:06.604
43.0, -115903.09332646053, -52960.312719382375, 13897.152411598256, -98849.49461811717, 49935.764066668045, -166463.56629890995, -121841.34833113532, -187500.02235174447, -0.162, 0.974, -0.07, 192.0, 0.0, 0.0, 0.0, 0.0, 0.0, 0.0, 0.0, 0.0, 0.0, 1.7184655266043954E9, 0.0, 2024-06-15 10:32:06.604
44.0, -109836.44990163445, -44481.781957361934, 19815.64847417456, -95476.6834350447, 53319.706418479254, -163925.99510264338, -119040.00419855169, -187500.02235174447, -0.162, 0.974, -0.07, 192.0, 0.0, 0.0, 0.0, 0.0, 0.0, 0.0, 0.0, 0.0, 0.0, 1.7184655266044102E9, 0.0, 2024-06-15 10:32:06.604
45.0, -109244.44159799119, -43290.43397789407, 20466.330107013, -95153.05252707632, 52788.271342309876, -163727.26574269126, -118792.97271883163, -187500.02235174447, -0.162, 0.974, -0.07, 192.0, 0.0, 0.0, 0.0, 0.0, 0.0, 0.0, 0.0, 0.0, 0.0, 1.7184655266044245E9, 0.0, 2024-06-15 10:32:06.604
46.0, -115132.40517764154, -51460.354204220086, 14769.317480244337, -98439.51892131793, 49385.48646992284, -166174.44648438055, -121497.39968745706, -187500.02235174447, -0.162, 0.974, -0.07, 192.0, 0.0, 0.0, 0.0, 0.0, 0.0, 0.0, 0.0, 0.0, 0.0, 1.718465526604453E9, 0.0, 2024-06-15 10:32:06.604
47.0, -116657.93408846071, -53954.29479530988, 13250.315278806125, -99333.25342336339, 49425.987830875856, -166781.60927076451, -122201.50198954369, -187500.02235174447, -0.162, 0.974, -0.07, 192.0, 0.0, 0.0, 0.0, 0.0, 0.0, 0.0, 0.0, 0.0, 0.0, 1.7184655266044664E9, 0.0, 2024-06-15 10:32:06.604
48.0, -110879.98579501937, -45882.6775410983, 18883.983061788447, -96133.0871144637, 52901.728797165015, -164378.41676216325, -119556.12832976918, -187500.02235174447, -0.158, 0.972, -0.066, 192.0, 251.0, 16.0, 30.0, 96.0, 253.0, 240.0, 0.0, 0.0, 0.0, 1.7184655266044793E9, 0.0, 2024-06-15 10:32:06.604
49.0, -108812.74000558139, -42751.533419076615, 20966.696258389504, -94995.2715629663, 53239.57541460698, -163549.56937427158, -118614.58344633383, -187500.02235174447, -0.158, 0.972, -0.066, 192.0, 0.0, 0.0, 0.0, 0.0, 0.0, 0.0, 0.0, 0.0, 0.0, 1.7184655266044927E9, 0.0, 2024-06-15 10:32:06.604
50.0, -114210.01573920438, -50026.3109834565, 15757.845730524747, -97995.0321310797, 49887.61840911131, -165810.22480848132, -121109.35105196846, -187500.02235174447, -0.158, 0.972, -0.066, 192.0, 0.0, 0.0, 0.0, 0.0, 0.0, 0.0, 0.0, 0.0, 0.0, 1.7184655266045055E9, 0.0, 2024-06-15 10:32:06.604
51.0, -117234.83261285217, -54619.28154459972, 12778.827581265878, -99755.63433833532, 49024.39403824735, -167075.98174524092, -122531.34668247066, -187500.02235174447, -0.158, 0.972, -0.066, 192.0, 0.0, 0.0, 0.0, 0.0, 0.0, 0.0, 0.0, 0.0, 0.0, 1.718465526604519E9, 0.0, 2024-06-15 10:32:06.604
52.0, -112029.40190188908, -47416.25307992138, 17850.61721213069, -96839.20107355132, 52393.69599744034, -164868.4117041125, -120112.28443530614, -187500.02235174447, -0.158, 0.972, -0.066, 192.0, 0.0, 0.0, 0.0, 0.0, 0.0, 0.0, 0.0, 0.0, 0.0, 1.7184655266045315E9, 0.0, 2024-06-15 10:32:06.604
53.0, -108679.47890513885, -42615.94773721072, 21179.328403392843, -95015.23167076489, 53546.30840376716, -163521.65204544688, -118593.14812340119, -187500.02235174447, -0.158, 0.972, -0.066, 192.0, 0.0, 0.0, 0.0, 0.0, 0.0, 0.0, 0.0, 0.0, 0.0, 1.7184655266045449E9, 0.0, 2024-06-15 10:32:06.604
54.0, -113150.49834853392, -48466.136868731606, 16877.243444590982, -97448.12964774725, 50497.128128663084, -165359.79245421797, -120624.67582519959, -187500.02235174447, -0.158, 0.972, -0.066, 192.0, 0.0, 0.0, 0.0, 0.0, 0.0, 0.0, 0.0, 0.0, 0.0, 1.7184655266045766E9, 0.0, 2024-06-15 10:32:06.604
55.0, -117391.18306531705, -54711.683656177964, 12710.52065021046, -99884.67095907581, 48790.147756355735, -167128.37423424414, -122600.34651760418, -187500.02235174447, -0.158, 0.972, -0.066, 192.0, 0.0, 0.0, 0.0, 0.0, 0.0, 0.0, 0.0, 0.0, 0.0, 1.7184655266045916E9, 0.0, 2024-06-15 10:32:06.604
56.0, -113220.48166042348, -49004.88096533787, 16772.994908451426, -97564.24696019257, 51785.7732517449, -165365.44744556517, -120673.08970368978, -187500.02235174447, -0.158, 0.972, -0.066, 192.0, 0.0, 0.0, 0.0, 0.0, 0.0, 0.0, 0.0, 0.0, 0.0, 1.7184655266046207E9, 0.0, 2024-06-15 10:32:06.604
57.0, -108817.50092715037, -42850.730460969266, 21126.287713800397, -95188.94942867153, 53702.547097509756, -163601.3583661745, -118687.04780185793, -187500.02235174447, -0.158, 0.972, -0.066, 192.0, 0.0, 0.0, 0.0, 0.0, 0.0, 0.0, 0.0, 0.0, 0.0, 1.7184655266046338E9, 0.0, 2024-06-15 10:32:06.604
58.0, -112152.89529000466, -47020.94012748481, 17942.415826608638, -96969.2882262812, 51138.4220288303, -164961.2384988354, -120187.7215728428, -187500.02235174447, -0.16, 0.976, -0.068, 192.0, 251.0, 0.0, 30.0, 128.0, 253.0, 224.0, 0.0, 0.0, 0.0, 1.7184655266046464E9, 0.0, 2024-06-15 10:32:06.604
59.0, -117320.8868290051, -54447.44133322732, 12876.236483602106, -99910.15194775486, 48718.30924967638, -167118.36065272818, -122591.5399302888, -187500.02235174447, -0.16, 0.976, -0.068, 192.0, 0.0, 0.0, 0.0, 0.0, 0.0, 0.0, 0.0, 0.0, 0.0, 1.7184655266046596E9, 0.0, 2024-06-15 10:32:06.604
60.0, -114380.78306684292, -50528.53232962279, 15728.96727668849, -98263.27541628784, 51161.10904945243, -165843.21598329736, -121214.27014044169, -187500.02235174447, -0.16, 0.976, -0.068, 192.0, 0.0, 0.0, 0.0, 0.0, 0.0, 0.0, 0.0, 0.0, 0.0, 1.7184655266046724E9, 0.0, 2024-06-15 10:32:06.604
61.0, -109094.93077932963, -43230.10661960919, 20932.56514460625, -95385.80124208942, 53740.00862121685, -163687.65845151644, -118805.78026840453, -187500.02235174447, -0.16, 0.976, -0.068, 192.0, 0.0, 0.0, 0.0, 0.0, 0.0, 0.0, 0.0, 0.0, 0.0, 1.7184655266046855E9, 0.0, 2024-06-15 10:32:06.604
62.0, -111194.27367380544, -45661.7305471576, 18961.32009760381, -96516.71010455015, 51773.03275740537, -164583.87399719644, -119781.65743132323, -187500.02235174447, -0.16, 0.976, -0.068, 192.0, 0.0, 0.0, 0.0, 0.0, 0.0, 0.0, 0.0, 0.0, 0.0, 1.7184655266046984E9, 0.0, 2024-06-15 10:32:06.604
63.0, -116950.29490593611, -53819.62553496665, 13339.319925227157, -99758.60712034788, 48825.12823642829, -166971.1073602566, -122434.56362897917, -187500.02235174447, -0.16, 0.976, -0.068, 192.0, 0.0, 0.0, 0.0, 0.0, 0.0, 0.0, 0.0, 0.0, 0.0, 1.7184655266047115E9, 0.0, 2024-06-15 10:32:06.604
64.0, -115474.4539230411, -51981.90980934022, 14749.089151512284, -98928.82095918906, 50523.57024235371, -166296.68817480662, -121728.4273181471, -187500.02235174447, -0.16, 0.976, -0.068, 192.0, 0.0, 0.0, 0.0, 0.0, 0.0, 0.0, 0.0, 0.0, 0.0, 1.7184655266047251E9, 0.0, 2024-06-15 10:32:06.604
65.0, -109647.42119877592, -43908.2138428943, 20463.737304656184, -95741.37279288445, 53606.38989286303, -163907.59961695666, -119070.55903322209, -187500.02235174447, -0.16, 0.976, -0.068, 192.0, 0.0, 0.0, 0.0, 0.0, 0.0, 0.0, 0.0, 0.0, 0.0, 1.7184655266047382E9, 0.0, 2024-06-15 10:32:06.604
66.0, -110311.1338986318, -44398.32054356582, 19894.46072512397, -96099.85007045866, 52388.51039272671, -164225.15085043322, -119396.96155750295, -187500.02235174447, -0.16, 0.976, -0.068, 192.0, 0.0, 0.0, 0.0, 0.0, 0.0, 0.0, 0.0, 0.0, 0.0, 1.718465526604751E9, 0.0, 2024-06-15 10:32:06.604
67.0, -116301.89315103211, -52780.53763872834, 14069.93139623778, -99459.4290208136, 49105.88849853141, -166716.78921184412, -122155.85972736594, -187500.02235174447, -0.16, 0.976, -0.068, 192.0, 0.0, 0.0, 0.0, 0.0, 0.0, 0.0, 0.0, 0.0, 0.0, 1.718465526604764E9, 0.0, 2024-06-15 10:32:06.604
68.0, -116477.62256593975, -53312.12917710891, 13867.715164150617, -99585.62697000826, 49930.712572421144, -166760.82214842108, -122236.3483591495, -187500.02235174447, -0.16, 0.976, -0.068, 192.0, 0.0, 0.0, 0.0, 0.0, 0.0, 0.0, 0.0, 0.0, 0.0, 1.7184655266047769E9, 0.0, 2024-06-15 10:32:06.604
69.0, -110492.04891825306, -44993.68160887738, 19719.46891778337, -96284.47547965951, 53332.111636651956, -164282.03604007198, -119495.42099182856, -187500.02235174447, -0.16, 0.966, -0.062, 192.0, 251.0, 0.0, 30.0, 48.0, 254.0, 16.0, 0.0, 0.0, 0.0, 1.71846552660479E9, 0.0, 2024-06-15 10:32:06.604
70.0, -109646.03539061968, -43470.678445181664, 20617.494954764243, -95816.49700599874, 52944.71120175257, -163969.08926595323, -119122.34802512504, -187500.02235174447, -0.16, 0.966, -0.062, 192.0, 0.0, 0.0, 0.0, 0.0, 0.0, 0.0, 0.0, 0.0, 0.0, 1.718465526604803E9, 0.0, 2024-06-15 10:32:06.604
71.0, -115419.96037005907, -51415.00251472027, 15027.323666491946, -99018.58556492157, 49552.945739382, -166354.2215650346, -121760.07738829583, -187500.02235174447, -0.16, 0.966, -0.062, 192.0, 0.0, 0.0, 0.0, 0.0, 0.0, 0.0, 0.0, 0.0, 0.0, 1.718465526604816E9, 0.0, 2024-06-15 10:32:06.604
72.0, -117197.77342054527, -54246.14152266282, 13264.061601646139, -100064.42368798539, 49446.08204914118, -167083.67074533354, -122595.3397268462, -187500.02235174447, -0.16, 0.966, -0.062, 192.0, 0.0, 0.0, 0.0, 0.0, 0.0, 0.0, 0.0, 0.0, 0.0, 1.7184655266048293E9, 0.0, 2024-06-15 10:32:06.604
73.0, -111491.77539250559, -46293.9272873315, 18825.66736050455, -96906.88215576198, 52918.939640395605, -164712.620045259, -119983.98542213267, -187500.02235174447, -0.16, 0.966, -0.062, 192.0, 0.0, 0.0, 0.0, 0.0, 0.0, 0.0, 0.0, 0.0, 0.0, 1.718465526604842E9, 0.0, 2024-06-15 10:32:06.604
74.0, -109193.16669621071, -42854.932588926866, 21130.311027802352, -95649.82004759551, 53401.938486330335, -163796.3102813137, -118944.15991832734, -187500.02235174447, -0.16, 0.966, -0.062, 192.0, 0.0, 0.0, 0.0, 0.0, 0.0, 0.0, 0.0, 0.0, 0.0, 1.7184655266048555E9, 0.0, 2024-06-15 10:32:06.604
75.0, -114444.15026237372, -49923.56001419545, 16072.312423266463, -98555.47977155207, 50104.653847772344, -165983.83080766568, -121355.62257237705, -187500.02235174447, -0.16, 0.966, -0.062, 192.0, 0.0, 0.0, 0.0, 0.0, 0.0, 0.0, 0.0, 0.0, 0.0, 1.71846552660487E9, 0.0, 2024-06-15 10:32:06.604
76.0, -117663.4720162716, -54835.71348616046, 12909.27236190705, -100407.14298571862, 49109.8894607889, -167303.0307654179, -122836.8950291747, -187500.02235174447, -0.16, 0.966, -0.062, 192.0, 0.0, 0.0, 0.0, 0.0, 0.0, 0.0, 0.0, 0.0, 0.0, 1.7184655266048827E9, 0.0, 2024-06-15 10:32:06.604
77.0, -112618.14685084188, -47789.57191581392, 17806.47251683146, -97593.34893147337, 52406.43649177987, -165179.34682123028, -120514.88405643513, -187500.02235174447, -0.16, 0.966, -0.062, 192.0, 0.0, 0.0, 0.0, 0.0, 0.0, 0.0, 0.0, 0.0, 0.0, 1.7184655266048963E9, 0.0, 2024-06-15 10:32:06.604
78.0, -109027.27204886342, -42618.51818782308, 21351.816815354447, -95643.31568995902, 53704.58110625519, -163739.58155388612, -118895.43311541477, -187500.02235174447, -0.16, 0.966, -0.062, 192.0, 0.0, 0.0, 0.0, 0.0, 0.0, 0.0, 0.0, 0.0, 0.0, 1.7184655266049092E9, 0.0, 2024-06-15 10:32:06.604
79.0, -113331.48042338854, -48295.63776202653, 17239.207594300224, -97987.94662808736, 50757.43654458959, -165512.87955199237, -120841.3759876938, -187500.02235174447, -0.164, 0.968, -0.062, 192.0, 250.0, 224.0, 30.0, 64.0, 254.0, 16.0, 0.0, 0.0, 0.0, 1.718465526604922E9, 0.0, 2024-06-15 10:32:06.604
80.0, -117795.74963995811, -54973.69080468307, 12903.527963582035, -100541.09699023927, 48962.010319472596, -167364.6992283701, -122893.5567013689, -187500.02235174447, -0.164, 0.968, -0.062, 192.0, 0.0, 0.0, 0.0, 0.0, 0.0, 0.0, 0.0, 0.0, 0.0, 1.7184655266049347E9, 0.0, 2024-06-15 10:32:06.604
81.0, -113731.57664913853, -49327.30487910568, 16830.014208556917, -98236.74389561938, 51845.340650718295, -165605.5498845041, -120989.81392262148, -187500.02235174447, -0.164, 0.968, -0.062, 192.0, 0.0, 0.0, 0.0, 0.0, 0.0, 0.0, 0.0, 0.0, 0.0, 1.7184655266049476E9, 0.0, 2024-06-15 10:32:06.604
82.0, -109054.71999105455, -42675.78335711758, 21399.247217088607, -95697.7868911966, 53837.03754389734, -163714.45819311836, -118882.33499316395, -187500.02235174447, -0.164, 0.968, -0.062, 192.0, 0.0, 0.0, 0.0, 0.0, 0.0, 0.0, 0.0, 0.0, 0.0, 1.7184655266049604E9, 0.0, 2024-06-15 10:32:06.604
83.0, -112252.8522912088, -46716.84464417036, 18366.96486079274, -97449.09077275882, 51355.30100528014, -165062.98363959594, -120355.38200800205, -187500.02235174447, -0.164, 0.968, -0.062, 192.0, 0.0, 0.0, 0.0, 0.0, 0.0, 0.0, 0.0, 0.0, 0.0, 1.7184655266049736E9, 0.0, 2024-06-15 10:32:06.604
84.0, -117662.8685191713, -54651.60216708209, 13130.845204692509, -100542.70631584006, 48875.53142017501, -167334.72553905554, -122861.12432016425, -187500.02235174447, -0.164, 0.968, -0.062, 192.0, 0.0, 0.0, 0.0, 0.0, 0.0, 0.0, 0.0, 0.0, 0.0, 1.7184655266049867E9, 0.0, 2024-06-15 10:32:06.604
85.0, -114981.53090256822, -51017.76731226055, 15717.947866672024, -99029.71673366032, 51170.38502340139, -166167.24922266594, -121608.04082251083, -187500.02235174447, -0.164, 0.968, -0.062, 192.0, 0.0, 0.0, 0.0, 0.0, 0.0, 0.0, 0.0, 0.0, 0.0, 1.7184655266049995E9, 0.0, 2024-06-15 10:32:06.604
86.0, -109490.8919323554, -43276.8664690097, 21066.40739040463, -96027.25160446783, 53818.50794774389, -163919.44604151798, -119113.7649552542, -187500.02235174447, -0.164, 0.968, -0.062, 192.0, 0.0, 0.0, 0.0, 0.0, 0.0, 0.0, 0.0, 0.0, 0.0, 1.7184655266050127E9, 0.0, 2024-06-15 10:32:06.605
87.0, -111302.9702070916, -45345.29690090381, 19370.312317647018, -97003.44169180891, 51995.90200136924, -164689.08365834758, -119948.98259031566, -187500.02235174447, -0.164, 0.968, -0.062, 192.0, 0.0, 0.0, 0.0, 0.0, 0.0, 0.0, 0.0, 0.0, 0.0, 1.7184655266050255E9, 0.0, 2024-06-15 10:32:06.605
88.0, -117178.7073825249, -53788.958941573976, 13687.269531162923, -100322.69809516646, 49031.36778251741, -167136.48791748143, -122650.63794262863, -187500.02235174447, -0.164, 0.968, -0.062, 192.0, 0.0, 0.0, 0.0, 0.0, 0.0, 0.0, 0.0, 0.0, 0.0, 1.7184655266050386E9, 0.0, 2024-06-15 10:32:06.605
89.0, -115997.70826073985, -52397.5181457422, 14819.273629101948, -99652.92807256318, 50578.376719758126, -166581.1141230004, -122073.7617699816, -187500.02235174447, -0.16, 0.964, -0.052000000000000005, 192.0, 251.0, 0.0, 30.0, 32.0, 254.0, 96.0, 0.0, 0.0, 0.0, 1.7184655266050515E9, 0.0, 2024-06-15 10:32:06.605
90.0, -110093.85259078177, -44119.19195880794, 20559.514529647175, -96417.71422835758, 53667.790134881754, -164156.3968844887, -119393.3852783901, -187500.02235174447, -0.16, 0.964, -0.052000000000000005, 192.0, 0.0, 0.0, 0.0, 0.0, 0.0, 0.0, 0.0, 0.0, 0.0, 1.7184655266050644E9, 0.0, 2024-06-15 10:32:06.605
91.0, -110491.73599383069, -44235.353974742175, 20232.62026698831, -96639.42118160978, 52577.65085430752, -164366.9950207466, -119605.59274024877, -187500.02235174447, -0.16, 0.964, -0.052000000000000005, 192.0, 0.0, 0.0, 0.0, 0.0, 0.0, 0.0, 0.0, 0.0, 0.0, 1.7184655266050775E9, 0.0, 2024-06-15 10:32:06.605
92.0, -116486.71972593306, -52647.88003538609, 14445.597165298124, -99997.12258543046, 49315.01141965526, -166864.51189094924, -122359.61822982052, -187500.02235174447, -0.16, 0.964, -0.052000000000000005, 192.0, 0.0, 0.0, 0.0, 0.0, 0.0, 0.0, 0.0, 0.0, 0.0, 1.7184655266050901E9, 0.0, 2024-06-15 10:32:06.605
93.0, -116905.34554783649, -53572.48229652432, 14027.194860839232, -100240.86835871558, 50009.033084992545, -166986.59711916413, -122528.59741790265, -187500.02235174447, -0.16, 0.964, -0.052000000000000005, 192.0, 0.0, 0.0, 0.0, 0.0, 0.0, 0.0, 0.0, 0.0, 0.0, 1.718465526605104E9, 0.0, 2024-06-15 10:32:06.605
94.0, -110976.83590374421, -45270.686777912, 19788.73697385037, -96987.54960150119, 53363.02409923364, -164545.67486592234, -119839.57080120694, -187500.02235174447, -0.16, 0.964, -0.052000000000000005, 192.0, 0.0, 0.0, 0.0, 0.0, 0.0, 0.0, 0.0, 0.0, 0.0, 1.7184655266051185E9, 0.0, 2024-06-15 10:32:06.605
95.0, -109860.07569552372, -43378.63396151471, 20926.66428407005, -96367.80278298889, 53117.333724180906, -164108.47474437652, -119336.43303351797, -187500.02235174447, -0.16, 0.964, -0.052000000000000005, 192.0, 0.0, 0.0, 0.0, 0.0, 0.0, 0.0, 0.0, 0.0, 0.0, 1.7184655266051328E9, 0.0, 2024-06-15 10:32:06.605
96.0, -115537.46349066061, -51203.51030868415, 15458.15354086799, -99498.76809105494, 49784.129832283244, -166443.00269401105, -121909.36468951282, -187500.02235174447, -0.16, 0.964, -0.052000000000000005, 192.0, 0.0, 0.0, 0.0, 0.0, 0.0, 0.0, 0.0, 0.0, 0.0, 1.7184655266051464E9, 0.0, 2024-06-15 10:32:06.605
97.0, -117537.81050894386, -54399.29567567059, 13509.014369131848, -100644.13853217823, 49557.349033039696, -167239.7753286094, -122812.75514516297, -187500.02235174447, -0.16, 0.964, -0.052000000000000005, 192.0, 0.0, 0.0, 0.0, 0.0, 0.0, 0.0, 0.0, 0.0, 0.0, 1.7184655266051595E9, 0.0, 2024-06-15 10:32:06.605
98.0, -111958.09983707665, -46573.83818314531, 18920.93049537307, -97567.75618407204, 52933.93766092511, -164930.0354635758, -120279.00609719827, -187500.02235174447, -0.16, 0.964, -0.052000000000000005, 192.0, 0.0, 0.0, 0.0, 0.0, 0.0, 0.0, 0.0, 0.0, 0.0, 1.718465526605174E9, 0.0, 2024-06-15 10:32:06.605
99.0, -109456.06791449404, -42827.596405458025, 21394.62040598636, -96218.35901956071, 53504.7788625692, -163945.10584415268, -119169.97959255929, -187500.02235174447, -0.16, 0.972, -0.056, 192.0, 251.0, 0.0, 30.0, 96.0, 254.0, 64.0, 0.0, 0.0, 0.0, 1.7184655266051884E9, 0.0, 2024-06-15 10:32:06.605
100.0, -114547.72824617961, -49697.00273239645, 16513.49115532531, -99016.70801838733, 50306.221879270306, -166050.55076486478, -121487.96725129691, -187500.02235174447, -0.16, 0.972, -0.056, 192.0, 0.0, 0.0, 0.0, 0.0, 0.0, 0.0, 0.0, 0.0, 0.0, 1.7184655266052015E9, 0.0, 2024-06-15 10:32:06.605
101.0, -117991.7520870867, -54956.88229285268, 13170.832475523053, -100986.85782991146, 49214.428569606374, -167465.9302790082, -123064.36873249635, -187500.02235174447, -0.16, 0.972, -0.056, 192.0, 0.0, 0.0, 0.0, 0.0, 0.0, 0.0, 0.0, 0.0, 0.0, 1.7184655266052144E9, 0.0, 2024-06-15 10:32:06.605
102.0, -113073.87656854112, -48068.968721505255, 17921.136965887184, -98234.0393345403, 52420.71925648681, -165384.71464928566, -120797.00777495, -187500.02235174447, -0.16, 0.972, -0.056, 192.0, 0.0, 0.0, 0.0, 0.0, 0.0, 0.0, 0.0, 0.0, 0.0, 1.7184655266052272E9, 0.0, 2024-06-15 10:32:06.605
103.0, -109300.03038645153, -42613.39963834282, 21609.107745779485, -96201.21523156349, 53800.0454068238, -163882.16333176653, -119117.22947564477, -187500.02235174447, -0.16, 0.972, -0.056, 192.0, 0.0, 0.0, 0.0, 0.0, 0.0, 0.0, 0.0, 0.0, 0.0, 1.71846552660524E9, 0.0, 2024-06-15 10:32:06.605
104.0, -113441.85333750884, -48056.22822716573, 17658.34750632614, -98461.37892739523, 50947.359317226335, -165594.39636402088, -120999.44752448173, -187500.02235174447, -0.16, 0.972, -0.056, 192.0, 0.0, 0.0, 0.0, 0.0, 0.0, 0.0, 0.0, 0.0, 0.0, 1.718465526605253E9, 0.0, 2024-06-15 10:32:06.605
105.0, -118070.54198629166, -54971.20976104853, 13180.17550470537, -101095.77788064217, 49058.45809679724, -167508.35388998437, -123119.53283781206, -187500.02235174447, -0.16, 0.972, -0.056, 192.0, 0.0, 0.0, 0.0, 0.0, 0.0, 0.0, 0.0, 0.0, 0.0, 1.7184655270831568E9, 0.0, 2024-06-15 10:32:07.083
106.0, -114259.34603921724, -49662.37988023518, 16852.72358092351, -98954.12313391246, 51830.297926699874, -165878.08470464763, -121359.8470520791, -187500.02235174447, -0.16, 0.972, -0.056, 192.0, 0.0, 0.0, 0.0, 0.0, 0.0, 0.0, 0.0, 0.0, 0.0, 1.7184655270833151E9, 0.0, 2024-06-15 10:32:07.083
107.0, -109432.24095490467, -42795.20872774228, 21550.277954373116, -96341.07009662034, 53947.41045801764, -163930.82307944575, -119196.86874113903, -187500.02235174447, -0.16, 0.972, -0.056, 192.0, 0.0, 0.0, 0.0, 0.0, 0.0, 0.0, 0.0, 0.0, 0.0, 1.7184655270833268E9, 0.0, 2024-06-15 10:32:07.083
108.0, -112404.37476687132, -46539.148275750675, 18738.674371084497, -97961.90684579693, 51602.332485000195, -165179.480931697, -120560.54867035731, -187500.02235174447, -0.16, 0.972, -0.056, 192.0, 0.0, 0.0, 0.0, 0.0, 0.0, 0.0, 0.0, 0.0, 0.0, 1.7184655270833373E9, 0.0, 2024-06-15 10:32:07.083
109.0, -117887.50355094715, -54589.01728260724, 13447.882348046584, -101066.78766808363, 49058.86042819744, -167452.65334280173, -123067.83325288694, -187500.02235174447, -0.16, 0.972, -0.056, 192.0, 0.0, 0.0, 0.0, 0.0, 0.0, 0.0, 0.0, 0.0, 0.0, 1.7184655270833633E9, 0.0, 2024-06-15 10:32:07.083
110.0, -115407.26457920845, -51216.83194837951, 15827.56082148085, -99651.16228475122, 51216.25080302368, -166351.87463186678, -121895.8195323729, -187500.02235174447, -0.164, 0.974, -0.062, 192.0, 250.0, 224.0, 30.0, 112.0, 254.0, 16.0, 0.0, 0.0, 0.0, 1.7184655270833733E9, 0.0, 2024-06-15 10:32:07.083
111.0, -109825.47519510689, -43313.880957827685, 21243.075578579377, -96614.67780049775, 53922.890594350174, -164083.5301975644, -119383.37169687412, -187500.02235174447, -0.164, 0.974, -0.062, 192.0, 0.0, 0.0, 0.0, 0.0, 0.0, 0.0, 0.0, 0.0, 0.0, 1.7184655270833821E9, 0.0, 2024-06-15 10:32:07.083
112.0, -111412.02436828904, -45116.95147954839, 19775.996479510843, -97470.3025782469, 52238.82076010952, -164763.15733947247, -120114.78783068512, -187500.02235174447, -0.164, 0.974, -0.062, 192.0, 0.0, 0.0, 0.0, 0.0, 0.0, 0.0, 0.0, 0.0, 0.0, 1.7184655270833917E9, 0.0, 2024-06-15 10:32:07.083
113.0, -117393.77586767386, -53717.992152928375, 14016.287209545042, -100845.01365959807, 49211.90282248292, -167264.00461959894, -122865.3487998663, -187500.02235174447, -0.164, 0.974, -0.062, 192.0, 0.0, 0.0, 0.0, 0.0, 0.0, 0.0, 0.0, 0.0, 0.0, 1.7184655270834005E9, 0.0, 2024-06-15 10:32:07.083
114.0, -116496.10745860428, -52661.738116948385, 14861.98781275604, -100338.97016512993, 50599.25324907938, -166843.389492439, -122437.62581796954, -187500.02235174447, -0.164, 0.974, -0.062, 192.0, 0.0, 0.0, 0.0, 0.0, 0.0, 0.0, 0.0, 0.0, 0.0, 1.718465527083409E9, 0.0, 2024-06-15 10:32:07.083
115.0, -110541.02159035463, -44269.30627456978, 20628.447309547344, -97081.42692821348, 53738.24283340488, -164405.14944853183, -119745.7158262391, -187500.02235174447, -0.164, 0.974, -0.062, 192.0, 0.0, 0.0, 0.0, 0.0, 0.0, 0.0, 0.0, 0.0, 0.0, 1.7184655270834177E9, 0.0, 2024-06-15 10:32:07.083
116.0, -110693.0805078841, -44103.88101385606, 20545.25411668469, -97167.30233041076, 52813.506461799916, -164507.9227695373, -119836.6874261722, -187500.02235174447, -0.164, 0.974, -0.062, 192.0, 0.0, 0.0, 0.0, 0.0, 0.0, 0.0, 0.0, 0.0, 0.0, 1.7184655270834308E9, 0.0, 2024-06-15 10:32:07.083
117.0, -116698.36839418035, -52561.82581923316, 14774.21251228005, -100515.19131841557, 49541.5910531987, -166996.18601753545, -122576.72072371493, -187500.02235174447, -0.164, 0.974, -0.062, 192.0, 0.0, 0.0, 0.0, 0.0, 0.0, 0.0, 0.0, 0.0, 0.0, 1.7184655270834394E9, 0.0, 2024-06-15 10:32:07.083
118.0, -117419.8156499643, -53871.68274780307, 14057.995564698645, -100929.88323329488, 50053.66951866979, -167255.3321427503, -122895.30013743641, -187500.02235174447, -0.164, 0.974, -0.062, 192.0, 0.0, 0.0, 0.0, 0.0, 0.0, 0.0, 0.0, 0.0, 0.0, 1.718465527083448E9, 0.0, 2024-06-15 10:32:07.083
119.0, -111473.87164519688, -45507.503510415976, 19813.994445084863, -97652.51399904657, 53427.55358547611, -164792.23695900882, -120190.82846532208, -187500.02235174447, -0.164, 0.974, -0.062, 192.0, 0.0, 0.0, 0.0, 0.0, 0.0, 0.0, 0.0, 0.0, 0.0, 1.7184655270834565E9, 0.0, 2024-06-15 10:32:07.083
120.0, -110142.06530357186, -43353.77882168041, 21165.38091485273, -96932.56431014113, 53318.45472078976, -164279.64440341527, -119602.15057160266, -187500.02235174447, -0.166, 0.98, -0.06, 192.0, 250.0, 208.0, 30.0, 160.0, 254.0, 32.0, 0.0, 0.0, 0.0, 1.718465527083465E9, 0.0, 2024-06-15 10:32:07.083
121.0, -115794.46384840773, -51135.85157821794, 15745.999305963434, -100053.82896111357, 49997.27606740905, -166615.84873388396, -122172.26590779614, -187500.02235174447, -0.166, 0.98, -0.06, 192.0, 0.0, 0.0, 0.0, 0.0, 0.0, 0.0, 0.0, 0.0, 0.0, 1.7184655270834737E9, 0.0, 2024-06-15 10:32:07.083
122.0, -118054.33697156156, -54664.141495721524, 13545.87239573865, -101341.95999407292, 49616.827025035265, -167524.6483116923, -123198.99328935068, -187500.02235174447, -0.166, 0.98, -0.06, 192.0, 0.0, 0.0, 0.0, 0.0, 0.0, 0.0, 0.0, 0.0, 0.0, 1.718465527083482E9, 0.0, 2024-06-15 10:32:07.083
123.0, -112545.48132961767, -46927.576890895, 18870.147331970613, -98297.87591670465, 52965.274806651454, -165232.45456605608, -120690.12173296473, -187500.02235174447, -0.166, 0.98, -0.06, 192.0, 0.0, 0.0, 0.0, 0.0, 0.0, 0.0, 0.0, 0.0, 0.0, 1.7184655270834908E9, 0.0, 2024-06-15 10:32:07.083
124.0, -109847.9834017734, -42954.062575586155, 21532.150689619863, -96856.09899235952, 53678.11664082011, -164175.3511637868, -119497.96909069647, -187500.02235174447, -0.166, 0.98, -0.06, 192.0, 0.0, 0.0, 0.0, 0.0, 0.0, 0.0, 0.0, 0.0, 0.0, 1.7184655270834994E9, 0.0, 2024-06-15 10:32:07.083
125.0, -114805.93559812733, -49598.87857423766, 16791.435097627058, -99572.26062682399, 50540.24464371737, -166225.27435127192, -121751.29315272489, -187500.02235174447, -0.166, 0.98, -0.06, 192.0, 0.0, 0.0, 0.0, 0.0, 0.0, 0.0, 0.0, 0.0, 0.0, 1.7184655270835083E9, 0.0, 2024-06-15 10:32:07.083
126.0, -118432.86376391219, -55055.565244622856, 13275.10336340706, -101634.43257027061, 49317.067780145146, -167713.45349710627, -123408.40678315244, -187500.02235174447, -0.166, 0.98, -0.06, 192.0, 0.0, 0.0, 0.0, 0.0, 0.0, 0.0, 0.0, 0.0, 0.0, 1.7184655270835168E9, 0.0, 2024-06-15 10:32:07.083
127.0, -113701.22298016823, -48473.468240912945, 17846.68330510656, -98996.70320709982, 52443.85331199805, -165709.35138575453, -121227.10004175903, -187500.02235174447, -0.166, 0.98, -0.06, 192.0, 0.0, 0.0, 0.0, 0.0, 0.0, 0.0, 0.0, 0.0, 0.0, 1.7184655270835252E9, 0.0, 2024-06-15 10:32:07.083
128.0, -109798.20606687143, -42924.424162438416, 21669.300993597626, -96909.29614416315, 53940.57082421432, -164159.72729441253, -119489.14015163663, -187500.02235174447, -0.166, 0.98, -0.06, 192.0, 0.0, 0.0, 0.0, 0.0, 0.0, 0.0, 0.0, 0.0, 0.0, 1.7184655270835338E9, 0.0, 2024-06-15 10:32:07.083
129.0, -113732.09073926101, -48009.043694620574, 17922.656884510146, -99033.82945464009, 51177.917561282826, -165779.1782354329, -121266.41676025592, -187500.02235174447, -0.166, 0.98, -0.06, 192.0, 0.0, 0.0, 0.0, 0.0, 0.0, 0.0, 0.0, 0.0, 0.0, 1.7184655270835423E9, 0.0, 2024-06-15 10:32:07.083
130.0, -118429.46629875497, -54899.885344491646, 13370.947643631416, -101680.61127431528, 49190.86983095048, -167709.76545927115, -123408.94322501936, -187500.02235174447, -0.166, 0.97, -0.054, 192.0, 250.0, 208.0, 30.0, 80.0, 254.0, 80.0, 0.0, 0.0, 0.0, 1.718465527083551E9, 0.0, 2024-06-15 10:32:07.083
131.0, -114869.74982854722, -50019.20312871971, 16804.890847789153, -99707.57808775641, 51847.776990863924, -166202.58733064978, -121777.26587978196, -187500.02235174447, -0.166, 0.97, -0.054, 192.0, 0.0, 0.0, 0.0, 0.0, 0.0, 0.0, 0.0, 0.0, 0.0, 1.7184655270835595E9, 0.0, 2024-06-15 10:32:07.083
132.0, -109991.63806338765, -43210.481787977435, 21563.59959406848, -97085.07026255969, 54055.95052909262, -164239.2100976956, -119588.225434807, -187500.02235174447, -0.166, 0.97, -0.054, 192.0, 0.0, 0.0, 0.0, 0.0, 0.0, 0.0, 0.0, 0.0, 0.0, 1.718465527083568E9, 0.0, 2024-06-15 10:32:07.083
133.0, -112685.71617433026, -46520.0822377303, 19018.67467387613, -98509.21166052957, 51840.3338599603, -165335.76432892852, -120792.78329524795, -187500.02235174447, -0.166, 0.97, -0.054, 192.0, 0.0, 0.0, 0.0, 0.0, 0.0, 0.0, 0.0, 0.0, 0.0, 1.7184655270835767E9, 0.0, 2024-06-15 10:32:07.083
134.0, -118175.72929569833, -54381.794259762086, 13706.447327905576, -101589.7737848489, 49221.31290689861, -167610.7248795897, -123310.03675580464, -187500.02235174447, -0.166, 0.97, -0.054, 192.0, 0.0, 0.0, 0.0, 0.0, 0.0, 0.0, 0.0, 0.0, 0.0, 1.7184655270835853E9, 0.0, 2024-06-15 10:32:07.083
135.0, -115934.00578904222, -51442.36104993356, 15858.316821851353, -100322.8322056332, 51254.91932093136, -166610.14903904786, -122243.94795226431, -187500.02235174447, -0.166, 0.97, -0.054, 192.0, 0.0, 0.0, 0.0, 0.0, 0.0, 0.0, 0.0, 0.0, 0.0, 1.7184655270835936E9, 0.0, 2024-06-15 10:32:07.083
136.0, -110441.44456880624, -43807.76510331215, 21203.44593566012, -97388.58460051831, 53991.93513297262, -164418.94047486075, -119806.31140545744, -187500.02235174447, -0.166, 0.97, -0.054, 192.0, 0.0, 0.0, 0.0, 0.0, 0.0, 0.0, 0.0, 0.0, 0.0, 1.7184655270836024E9, 0.0, 2024-06-15 10:32:07.083
137.0, -111854.81242594868, -45317.267813356855, 19903.244960694905, -98157.2163888474, 52427.15655888994, -165043.8505463422, -120478.36130599515, -187500.02235174447, -0.166, 0.97, -0.054, 192.0, 0.0, 0.0, 0.0, 0.0, 0.0, 0.0, 0.0, 0.0, 0.0, 1.7184655270836108E9, 0.0, 2024-06-15 10:32:07.083
138.0, -117706.36501388134, -53541.07809556462, 14254.355639738518, -101401.77326223532, 49408.97815334537, -167450.14994742276, -123139.2694281661, -187500.02235174447, -0.166, 0.97, -0.054, 192.0, 0.0, 0.0, 0.0, 0.0, 0.0, 0.0, 0.0, 0.0, 0.0, 1.7184655270836194E9, 0.0, 2024-06-15 10:32:07.083
139.0, -117047.86027048354, -52865.586026380784, 14874.974176284573, -101041.1949206823, 50654.55146486181, -167131.72699591244, -122821.38291852271, -187500.02235174447, -0.166, 0.97, -0.054, 192.0, 0.0, 0.0, 0.0, 0.0, 0.0, 0.0, 0.0, 0.0, 0.0, 1.718465527083628E9, 0.0, 2024-06-15 10:32:07.083
140.0, -111157.236833243, -44719.828035810955, 20596.819591143085, -97837.96642279225, 53821.681895456546, -164718.31974009512, -120152.09289218104, -187500.02235174447, -0.16, 0.966, -0.056, 192.0, 251.0, 0.0, 30.0, 48.0, 254.0, 64.0, 0.0, 0.0, 0.0, 1.7184655270836363E9, 0.0, 2024-06-15 10:32:07.083
141.0, -111064.41003852012, -44237.96912884345, 20749.370247050556, -97775.04626215056, 53024.082246313366, -164702.8299811876, -120114.16198184039, -187500.02235174447, -0.16, 0.966, -0.056, 192.0, 0.0, 0.0, 0.0, 0.0, 0.0, 0.0, 0.0, 0.0, 0.0, 1.7184655270836449E9, 0.0, 2024-06-15 10:32:07.083
142.0, -116964.46591192078, -52361.28596798015, 15064.539321010034, -101042.89365326091, 49749.55168361088, -167155.17397584606, -122817.22549405403, -187500.02235174447, -0.16, 0.966, -0.056, 192.0, 0.0, 0.0, 0.0, 0.0, 0.0, 0.0, 0.0, 0.0, 0.0, 1.7184655270836537E9, 0.0, 2024-06-15 10:32:07.083
143.0, -117877.44526594225, -53947.857492906754, 14160.32185081504, -101567.55615086033, 50136.952118510264, -167493.28881422148, -123220.65212972787, -187500.02235174447, -0.16, 0.966, -0.056, 192.0, 0.0, 0.0, 0.0, 0.0, 0.0, 0.0, 0.0, 0.0, 0.0, 1.7184655270836623E9, 0.0, 2024-06-15 10:32:07.083
144.0, -112058.28035572534, -45908.22558501072, 19799.979901311388, -98390.27802828289, 53486.96452223832, -165093.04673588835, -120576.55251938732, -187500.02235174447, -0.16, 0.966, -0.056, 192.0, 0.0, 0.0, 0.0, 0.0, 0.0, 0.0, 0.0, 0.0, 0.0, 1.7184655270836709E9, 0.0, 2024-06-15 10:32:07.083
145.0, -110515.94293307578, -43492.40434079222, 21347.391169952294, -97556.46855312212, 53512.84784231757, -164493.39413564137, -119891.02451694304, -187500.02235174447, -0.16, 0.966, -0.056, 192.0, 0.0, 0.0, 0.0, 0.0, 0.0, 0.0, 0.0, 0.0, 0.0, 1.7184655270836792E9, 0.0, 2024-06-15 10:32:07.083
