%OpenBCI Raw EXG Data
%Number of channels = 8
%Sample Rate = 250 Hz
%Board = OpenBCI_GUI$BoardCytonSerial
Sample Index, EXG Channel 0, EXG Channel 1, EXG Channel 2, EXG Channel 3, EXG Channel 4, EXG Channel 5, EXG Channel 6, EXG Channel 7, Accel Channel 0, Accel Channel 1, Accel Channel 2, Other, Other, Other, Other, Other, Other, Other, Analog Channel 0, Analog Channel 1, Analog Channel 2, Timestamp, Other, Timestamp (Formatted)
166.0, 35375.83772848103, 42026.66634639101, 65377.91375850604, -187500.02235174447, -48084.79375657961, -187500.02235174447, -139105.32165829203, 83116.95106231583, 0.0, 0.0, 0.0, 192.0, 0.0, 0.0, 0.0, 0.0, 0.0, 0.0, 0.0, 0.0, 0.0, 1.7184700009857252E9, 0.0, 2024-06-15 11:46:40.985
167.0, 35348.7921176901, 41993.51870936379, 63799.50062030562, -187500.02235174447, -48685.20631613807, -187500.02235174447, -139320.30073646316, 82866.16448952729, 0.0, 0.0, 0.0, 192.0, 0.0, 0.0, 0.0, 0.0, 0.0, 0.0, 0.0, 0.0, 0.0, 1.7184700009857407E9, 0.0, 2024-06-15 11:46:40.985
168.0, 35446.60335142653, 42332.10293437278, 64590.12652517874, -187500.02235174447, -48359.38493721306, -187500.02235174447, -139176.55666787107, 83070.19121291534, 0.0, 0.0, 0.0, 192.0, 0.0, 0.0, 0.0, 0.0, 0.0, 0.0, 0.0, 0.0, 0.0, 1.718470000985751E9, 0.0, 2024-06-15 11:46:40.985
169.0, 35492.24561360426, 42548.06548929995, 66511.32601634575, -187500.02235174447, -48039.28560486861, -187500.02235174447, -138897.80806276895, 83810.86096893084, 0.0, 0.0, 0.0, 192.0, 0.0, 0.0, 0.0, 0.0, 0.0, 0.0, 0.0, 0.0, 0.0, 1.7184700009857607E9, 0.0, 2024-06-15 11:46:40.985
170.0, 35390.54517633262, 42089.966486688434, 65724.27639058548, -187500.02235174447, -48043.55478805957, -187500.02235174447, -139020.4073811063, 83287.91955565447, 0.0, 0.0, 0.0, 192.0, 0.0, 0.0, 0.0, 0.0, 0.0, 0.0, 0.0, 0.0, 0.0, 1.7184700009857705E9, 0.0, 2024-06-15 11:46:40.985
171.0, 35338.2420943072, 41964.48379331634, 63976.079401502546, -187500.02235174447, -48573.648759561635, -187500.02235174447, -139246.60703499403, 82900.02738237708, 0.0, 0.0, 0.0, 192.0, 0.0, 0.0, 0.0, 0.0, 0.0, 0.0, 0.0, 0.0, 0.0, 1.7184700009857807E9, 0.0, 2024-06-15 11:46:40.985
180.0, 35395.037876968134, 42131.496027886395, 63909.1359268589, -187500.02235174447, -48619.44748395056, -187500.02235174447, -139159.0999554515, 82980.38190369391, 0.0, 0.0, 0.0, 192.0, 0.0, 0.0, 0.0, 0.0, 0.0, 0.0, 0.0, 0.0, 0.0, 1.7184700009857905E9, 0.0, 2024-06-15 11:46:40.985
206.0, 35494.21256711633, 42506.73711380209, 65680.31050924188, -187500.02235174447, -48192.238592176276, -187500.02235174447, -138698.72107490554, 83431.64127250211, 0.0, 0.0, 0.0, 192.0, 0.0, 0.0, 0.0, 0.0, 0.0, 0.0, 0.0, 0.0, 0.0, 1.7184700009858007E9, 0.0, 2024-06-15 11:46:40.985
178.0, 35433.34876696453, 42254.94471251306, 66279.58312983312, -187500.02235174447, -48033.96588968825, -187500.02235174447, -138858.13371636078, 83599.32405940582, 0.0, 0.0, 0.0, 192.0, 0.0, 0.0, 0.0, 0.0, 0.0, 0.0, 0.0, 0.0, 0.0, 1.7184700009858105E9, 0.0, 2024-06-15 11:46:40.985
211.0, 35472.06198836112, 42420.101752293325, 66478.67011769654, -187500.02235174447, -48281.46675604186, -187500.02235174447, -138615.66199250962, 83673.91183065317, 0.0, 0.0, 0.0, 192.0, 0.0, 0.0, 0.0, 0.0, 0.0, 0.0, 0.0, 0.0, 0.0, 1.7184700009858196E9, 0.0, 2024-06-15 11:46:40.985
194.0, 35494.45843630534, 42525.40082042227, 66411.03373897479, -187500.02235174447, -48160.901446449934, -187500.02235174447, -138741.01057541498, 83720.85049400933, -0.13, 0.922, 0.32, 192.0, 251.0, 240.0, 28.0, 208.0, 10.0, 0.0, 0.0, 0.0, 0.0, 1.7184700009858294E9, 0.0, 2024-06-15 11:46:40.985
187.0, 35355.76586196016, 41971.94927596441, 65035.50738519519, -187500.02235174447, -48167.115231408505, -187500.02235174447, -138986.20921208969, 83029.04165137312, -0.13, 0.922, 0.32, 192.0, 0.0, 0.0, 0.0, 0.0, 0.0, 0.0, 0.0, 0.0, 0.0, 1.718470000985839E9, 0.0, 2024-06-15 11:46:40.985
204.0, 35337.370376273444, 41942.48967677232, 64485.29684368335, -187500.02235174447, -48364.30232099323, -187500.02235174447, -138920.89741479128, 83001.4372469708, -0.128, 0.924, 0.318, 192.0, 252.0, 0.0, 28.0, 224.0, 9.0, 240.0, 0.0, 0.0, 0.0, 1.718470000985849E9, 0.0, 2024-06-15 11:46:40.985
197.0, 35424.341013949044, 42248.30624440983, 64352.30396417427, -187500.02235174447, -48440.07473469672, -187500.02235174447, -138957.7554413981, 83093.34762017103, -0.128, 0.924, 0.318, 192.0, 0.0, 0.0, 0.0, 0.0, 0.0, 0.0, 0.0, 0.0, 0.0, 1.7184700009858594E9, 0.0, 2024-06-15 11:46:40.985
202.0, 35491.01626765922, 42535.21323623815, 65977.05226863053, -187500.02235174447, -48186.04715896215, -187500.02235174447, -138715.10490359127, 83538.25909355392, -0.128, 0.924, 0.318, 192.0, 0.0, 0.0, 0.0, 0.0, 0.0, 0.0, 0.0, 0.0, 0.0, 1.7184700009858708E9, 0.0, 2024-06-15 11:46:40.985
195.0, 35395.68607755734, 42087.0831116537, 65652.5496426284, -187500.02235174447, -48166.60114128604, -187500.02235174447, -138881.9383242057, 83226.58636886912, -0.128, 0.924, 0.318, 192.0, 0.0, 0.0, 0.0, 0.0, 0.0, 0.0, 0.0, 0.0, 0.0, 1.7184700009858818E9, 0.0, 2024-06-15 11:46:40.985
209.0, 35370.71917900076, 42076.1307568706, 63914.79091820609, -187500.02235174447, -48616.0276670489, -187500.02235174447, -138913.09665597638, 83116.01228904871, -0.128, 0.924, 0.318, 192.0, 0.0, 0.0, 0.0, 0.0, 0.0, 0.0, 0.0, 0.0, 0.0, 1.7184700009858923E9, 0.0, 2024-06-15 11:46:40.985
223.0, 35496.55950028414, 42544.91389333176, 66213.66783543442, -187500.02235174447, -48330.81940779918, -187500.02235174447, -138540.78364858433, 83540.53897148836, -0.128, 0.924, 0.318, 192.0, 0.0, 0.0, 0.0, 0.0, 0.0, 0.0, 0.0, 0.0, 0.0, 1.7184700009859033E9, 0.0, 2024-06-15 11:46:40.985
221.0, 35330.35192851447, 41971.278723630756, 64087.7263650568, -187500.02235174447, -48507.04056108482, -187500.02235174447, -138808.2222709921, 83111.7654576022, -0.128, 0.924, 0.318, 192.0, 0.0, 0.0, 0.0, 0.0, 0.0, 0.0, 0.0, 0.0, 0.0, 1.7184700009859145E9, 0.0, 2024-06-15 11:46:40.985
231.0, 35625.68552800245, 42584.655294973294, 65545.28362098738, -187500.02235174447, -48484.934685818516, -187500.02235174447, -138612.93507968605, 82855.30154172202, -0.128, 0.924, 0.318, 192.0, 0.0, 0.0, 0.0, 0.0, 0.0, 0.0, 0.0, 0.0, 0.0, 1.718470000985924E9, 0.0, 2024-06-15 11:46:40.985
214.0, 35475.3253430516, 42402.06389451789, 64984.25483515917, -187500.02235174447, -48297.850584727596, -187500.02235174447, -138726.5937002413, 83209.6884500609, -0.128, 0.924, 0.318, 192.0, 0.0, 0.0, 0.0, 0.0, 0.0, 0.0, 0.0, 0.0, 0.0, 1.7184700009859352E9, 0.0, 2024-06-15 11:46:40.985
215.0, 35488.91520368042, 42492.74492177307, 66481.70995494246, -187500.02235174447, -48313.094474446116, -187500.02235174447, -138587.78936717386, 83661.57366771385, -0.132, 0.92, 0.32, 192.0, 251.0, 224.0, 28.0, 192.0, 10.0, 0.0, 0.0, 0.0, 0.0, 1.7184700009859455E9, 0.0, 2024-06-15 11:46:40.985
248.0, 35503.041506176174, 42544.48921018711, 66221.98268437179, -187500.02235174447, -48821.41784684871, -187500.02235174447, -138446.03460383828, 83427.03681314431, -0.132, 0.92, 0.32, 192.0, 0.0, 0.0, 0.0, 0.0, 0.0, 0.0, 0.0, 0.0, 0.0, 1.7184700009859626E9, 0.0, 2024-06-15 11:46:40.985
224.0, 35402.77158054967, 42162.00615906789, 65963.88709114636, -187500.02235174447, -48294.22960212584, -187500.02235174447, -138574.42302398957, 83321.17895140397, -0.132, 0.92, 0.32, 192.0, 0.0, 0.0, 0.0, 0.0, 0.0, 0.0, 0.0, 0.0, 0.0, 1.7184700009859736E9, 0.0, 2024-06-15 11:46:40.985
229.0, 35188.28424075654, 41870.76292881524, 64646.85525260631, -187500.02235174447, -47954.41603117181, -187500.02235174447, -138523.72926756492, 83848.00956821557, -0.132, 0.92, 0.32, 192.0, 0.0, 0.0, 0.0, 0.0, 0.0, 0.0, 0.0, 0.0, 0.0, 1.7184700009859853E9, 0.0, 2024-06-15 11:46:40.985
246.0, 35309.810675360044, 41961.53336304824, 64189.47150581736, -187500.02235174447, -48833.934823743686, -187500.02235174447, -138637.1196671867, 83255.64363666101, -0.132, 0.92, 0.32, 192.0, 0.0, 0.0, 0.0, 0.0, 0.0, 0.0, 0.0, 0.0, 0.0, 1.7184700009859967E9, 0.0, 2024-06-15 11:46:40.985
227.0, 35558.630294636525, 42572.76416692307, 65908.49946838612, -187500.02235174447, -48744.25962498899, -187500.02235174447, -138690.987371324, 82937.15362991735, -0.132, 0.92, 0.32, 192.0, 0.0, 0.0, 0.0, 0.0, 0.0, 0.0, 0.0, 0.0, 0.0, 1.718470000986007E9, 0.0, 2024-06-15 11:46:40.986
244.0, 35498.88408170749, 42534.676794371226, 66395.49927657834, -187500.02235174447, -49011.9664683302, -187500.02235174447, -138535.3074711928, 83397.10782731866, -0.132, 0.92, 0.32, 192.0, 0.0, 0.0, 0.0, 0.0, 0.0, 0.0, 0.0, 0.0, 0.0, 1.7184700009860172E9, 0.0, 2024-06-15 11:46:40.986
233.0, 35242.24135187166, 41908.358562989066, 64858.325106897966, -187500.02235174447, -48553.84511397423, -187500.02235174447, -138703.30318251887, 83051.12517489496, -0.132, 0.92, 0.32, 192.0, 0.0, 0.0, 0.0, 0.0, 0.0, 0.0, 0.0, 0.0, 0.0, 1.718470000986028E9, 0.0, 2024-06-15 11:46:40.986
242.0, 35316.87382660792, 41992.89286051904, 64088.59808309056, -187500.02235174447, -49003.69632288174, -187500.02235174447, -138705.24778428648, 83190.35419110706, -0.132, 0.92, 0.32, 192.0, 0.0, 0.0, 0.0, 0.0, 0.0, 0.0, 0.0, 0.0, 0.0, 1.718470000986038E9, 0.0, 2024-06-15 11:46:40.986
235.0, 35578.25512626828, 42502.69144805568, 65241.76928302876, -187500.02235174447, -47993.68804617978, -187500.02235174447, -138426.02979255078, 83323.79410550525, -0.128, 0.928, 0.314, 192.0, 252.0, 0.0, 29.0, 0.0, 9.0, 208.0, 0.0, 0.0, 0.0, 1.718470000986048E9, 0.0, 2024-06-15 11:46:40.986
0.0, 0.0, 0.0, 0.0, 0.0, 0.0, 0.0, 0.0, 0.0, -0.128, 0.928, 0.314, 192.0, 0.0, 0.0, 0.0, 0.0, 0.0, 0.0, 0.0, 0.0, 0.0, 1.7184700011030614E9, 0.0, 2024-06-15 11:46:41.103
251.0, 35374.31780985806, 42164.68836840253, 64230.03992200374, -187500.02235174447, -48515.4001135111, -187500.02235174447, -138456.69638594348, 83480.97157251497, -0.128, 0.928, 0.314, 192.0, 0.0, 0.0, 0.0, 0.0, 0.0, 0.0, 0.0, 0.0, 0.0, 1.7184700011030865E9, 0.0, 2024-06-15 11:46:41.103
238.0, 35333.034137849114, 42025.235834745865, 64000.71102389229, -187500.02235174447, -49319.28060284622, -187500.02235174447, -138861.1735536067, 82702.8179410479, -0.128, 0.928, 0.314, 192.0, 0.0, 0.0, 0.0, 0.0, 0.0, 0.0, 0.0, 0.0, 0.0, 1.7184700011031015E9, 0.0, 2024-06-15 11:46:41.103
249.0, 35400.6034613375, 42160.06155730028, 65965.9210998918, -187500.02235174447, -48776.04380560444, -187500.02235174447, -138495.81193874025, 83234.85651431758, -0.128, 0.928, 0.314, 192.0, 0.0, 0.0, 0.0, 0.0, 0.0, 0.0, 0.0, 0.0, 0.0, 1.718470001103115E9, 0.0, 2024-06-15 11:46:41.103
1.0, 34955.96020888808, 41635.086135278485, 64319.08927191368, -187500.02235174447, -43082.339237015156, -187500.02235174447, -138616.33254484326, 86324.89577828597, -0.136, 0.922, 0.328, 192.0, 251.0, 192.0, 28.0, 208.0, 10.0, 64.0, 0.0, 0.0, 0.0, 1.718470001103129E9, 0.0, 2024-06-15 11:46:41.103
2.0, 35255.38417761138, 42042.871361121106, 64256.817311861196, -187500.02235174447, -43147.069888957725, -187500.02235174447, -138633.47633284048, 85796.79111204042, -0.136, 0.922, 0.328, 192.0, 0.0, 0.0, 0.0, 0.0, 0.0, 0.0, 0.0, 0.0, 0.0, 1.7184700011311047E9, 0.0, 2024-06-15 11:46:41.131
3.0, 35498.79467472967, 42504.21136667864, 65694.81679139337, -187500.02235174447, -45583.18651714164, -187500.02235174447, -139352.9342833679, 83462.44197636152, -0.136, 0.922, 0.328, 192.0, 0.0, 0.0, 0.0, 0.0, 0.0, 0.0, 0.0, 0.0, 0.0, 1.7184700011311228E9, 0.0, 2024-06-15 11:46:41.131
4.0, 35279.99344825667, 42058.383471773086, 65729.23847785455, -187500.02235174447, -45835.02362191959, -187500.02235174447, -139453.58418865016, 83422.1417811086, -0.136, 0.922, 0.328, 192.0, 0.0, 0.0, 0.0, 0.0, 0.0, 0.0, 0.0, 0.0, 0.0, 1.718470001131134E9, 0.0, 2024-06-15 11:46:41.131
5.0, 35003.10003794432, 41662.80229840306, 64404.02590084385, -187500.02235174447, -43841.18096127283, -187500.02235174447, -138891.21429815463, 85456.6199131751, -0.136, 0.922, 0.328, 192.0, 0.0, 0.0, 0.0, 0.0, 0.0, 0.0, 0.0, 0.0, 0.0, 1.718470001191232E9, 0.0, 2024-06-15 11:46:41.191
6.0, 35145.3465396579, 41923.58010096313, 64134.97795283532, -187500.02235174447, -42937.96931957833, -187500.02235174447, -138571.89727686613, 86260.58980948804, -0.136, 0.922, 0.328, 192.0, 0.0, 0.0, 0.0, 0.0, 0.0, 0.0, 0.0, 0.0, 0.0, 1.718470001191248E9, 0.0, 2024-06-15 11:46:41.191
7.0, 35342.86890540944, 42374.97358023806, 65633.30479065237, -187500.02235174447, -43563.304074204454, -187500.02235174447, -138693.98250508102, 85421.68413659146, -0.136, 0.922, 0.328, 192.0, 0.0, 0.0, 0.0, 0.0, 0.0, 0.0, 0.0, 0.0, 0.0, 1.7184700011912584E9, 0.0, 2024-06-15 11:46:41.191
8.0, 35283.88265179189, 42128.88087378513, 66019.98996972918, -187500.02235174447, -43916.95337497633, -187500.02235174447, -138793.29130569595, 85116.58282477652, -0.138, 0.92, 0.332, 192.0, 251.0, 176.0, 28.0, 192.0, 10.0, 96.0, 0.0, 0.0, 0.0, 1.718470001191269E9, 0.0, 2024-06-15 11:46:41.191
9.0, 35162.937362544224, 41770.358892722, 64458.40769510361, -187500.02235174447, -43874.39565353342, -187500.02235174447, -138948.1441912823, 84658.99791228746, -0.138, 0.92, 0.332, 192.0, 0.0, 0.0, 0.0, 0.0, 0.0, 0.0, 0.0, 0.0, 0.0, 1.7184700011912792E9, 0.0, 2024-06-15 11:46:41.191
10.0, 35203.50577873061, 41930.97852837784, 63878.469333466215, -187500.02235174447, -44004.594564985586, -187500.02235174447, -138945.4396302032, 84790.87320457379, -0.138, 0.92, 0.332, 192.0, 0.0, 0.0, 0.0, 0.0, 0.0, 0.0, 0.0, 0.0, 0.0, 1.7184700011912897E9, 0.0, 2024-06-15 11:46:41.191
11.0, 35323.75816390016, 42331.47708552803, 65320.134499089065, -187500.02235174447, -43917.64627905444, -187500.02235174447, -138825.7236869006, 84766.64391358422, -0.138, 0.92, 0.332, 192.0, 0.0, 0.0, 0.0, 0.0, 0.0, 0.0, 0.0, 0.0, 0.0, 1.7184700011912997E9, 0.0, 2024-06-15 11:46:41.191
12.0, 35291.370486184416, 42211.627031758675, 66179.2237972288, -187500.02235174447, -44090.06763578268, -187500.02235174447, -138788.5080323825, 84964.43450026924, -0.138, 0.92, 0.332, 192.0, 0.0, 0.0, 0.0, 0.0, 0.0, 0.0, 0.0, 0.0, 0.0, 1.7184700011913097E9, 0.0, 2024-06-15 11:46:41.191
13.0, 35173.24151673812, 41788.30734351961, 64729.824928024405, -187500.02235174447, -44038.502161324286, -187500.02235174447, -138963.052804834, 84393.88387130307, -0.138, 0.92, 0.332, 192.0, 0.0, 0.0, 0.0, 0.0, 0.0, 0.0, 0.0, 0.0, 0.0, 1.7184700011913195E9, 0.0, 2024-06-15 11:46:41.191
14.0, 35181.64577265332, 41869.91356252594, 63829.07197821999, -187500.02235174447, -44240.13724805561, -187500.02235174447, -139004.73880824313, 84571.37907402267, -0.138, 0.92, 0.332, 192.0, 0.0, 0.0, 0.0, 0.0, 0.0, 0.0, 0.0, 0.0, 0.0, 1.7184700011913292E9, 0.0, 2024-06-15 11:46:41.191
15.0, 35285.1790529703, 42233.88936923616, 64951.10719813195, -187500.02235174447, -44091.81107185019, -187500.02235174447, -138916.47176938914, 84530.58714039173, -0.138, 0.92, 0.332, 192.0, 0.0, 0.0, 0.0, 0.0, 0.0, 0.0, 0.0, 0.0, 0.0, 1.7184700011913393E9, 0.0, 2024-06-15 11:46:41.191
16.0, 35280.9769250127, 42248.50741010993, 66209.376300499, -187500.02235174447, -44232.761172385355, -187500.02235174447, -138822.08035255436, 84925.43070619473, -0.138, 0.92, 0.332, 192.0, 0.0, 0.0, 0.0, 0.0, 0.0, 0.0, 0.0, 0.0, 0.0, 1.7184700012072203E9, 0.0, 2024-06-15 11:46:41.207
17.0, 35159.96458053167, 41781.62417192748, 65013.42386167334, -187500.02235174447, -44154.79828772525, -187500.02235174447, -138970.74180492663, 84347.52635330276, -0.138, 0.92, 0.332, 192.0, 0.0, 0.0, 0.0, 0.0, 0.0, 0.0, 0.0, 0.0, 0.0, 1.7184700012483666E9, 0.0, 2024-06-15 11:46:41.248
18.0, 35128.0909929384, 41783.077035317074, 63854.21769073221, -187500.02235174447, -44351.15836276512, -187500.02235174447, -139026.88938699834, 84493.7961690183, -0.14200000000000002, 0.922, 0.334, 192.0, 251.0, 144.0, 28.0, 208.0, 10.0, 112.0, 0.0, 0.0, 0.0, 1.7184700012483835E9, 0.0, 2024-06-15 11:46:41.248
19.0, 35231.55721802202, 42121.035411481316, 64625.77755758495, -187500.02235174447, -44192.10334922116, -187500.02235174447, -138951.9439878397, 84450.8361161752, -0.14200000000000002, 0.922, 0.334, 192.0, 0.0, 0.0, 0.0, 0.0, 0.0, 0.0, 0.0, 0.0, 0.0, 1.7184700012483945E9, 0.0, 2024-06-15 11:46:41.248
20.0, 35247.89634321885, 42261.78434631638, 66171.95948028081, -187500.02235174447, -44266.37819604614, -187500.02235174447, -138812.4691024386, 84935.86897085536, -0.14200000000000002, 0.922, 0.334, 192.0, 0.0, 0.0, 0.0, 0.0, 0.0, 0.0, 0.0, 0.0, 0.0, 1.7184700012484047E9, 0.0, 2024-06-15 11:46:41.248
21.0, 35117.25039687758, 41779.8136806266, 65318.12284208809, -187500.02235174447, -44190.203450942456, -187500.02235174447, -138919.2433857016, 84443.05770910475, -0.14200000000000002, 0.922, 0.334, 192.0, 0.0, 0.0, 0.0, 0.0, 0.0, 0.0, 0.0, 0.0, 0.0, 1.7184700012484162E9, 0.0, 2024-06-15 11:46:41.248
22.0, 35059.18056478269, 41687.67978998182, 63938.21554639525, -187500.02235174447, -44363.87650536019, -187500.02235174447, -139011.84666297992, 84454.25593307686, -0.14200000000000002, 0.922, 0.334, 192.0, 0.0, 0.0, 0.0, 0.0, 0.0, 0.0, 0.0, 0.0, 0.0, 1.7184700012484264E9, 0.0, 2024-06-15 11:46:41.248
23.0, 35158.332903186434, 41991.35059015162, 64339.71993204593, -187500.02235174447, -44250.70962318297, -187500.02235174447, -138952.61454017335, 84444.59997947216, -0.14200000000000002, 0.922, 0.334, 192.0, 0.0, 0.0, 0.0, 0.0, 0.0, 0.0, 0.0, 0.0, 0.0, 1.7184700012484367E9, 0.0, 2024-06-15 11:46:41.248
24.0, 35203.50577873061, 42246.33929089776, 66060.20075800428, -187500.02235174447, -44204.26269820484, -187500.02235174447, -138759.71898552406, 84934.3490522324, -0.14200000000000002, 0.922, 0.334, 192.0, 0.0, 0.0, 0.0, 0.0, 0.0, 0.0, 0.0, 0.0, 0.0, 1.718470001248449E9, 0.0, 2024-06-15 11:46:41.248
25.0, 35116.78101024401, 41832.18381788538, 65569.95994686603, -187500.02235174447, -44258.82330642024, -187500.02235174447, -138906.86051927335, 84530.29656771381, -0.14200000000000002, 0.922, 0.334, 192.0, 0.0, 0.0, 0.0, 0.0, 0.0, 0.0, 0.0, 0.0, 0.0, 1.7184700012484589E9, 0.0, 2024-06-15 11:46:41.248
26.0, 35027.038756255955, 41639.86940859192, 64054.8693007075, -187500.02235174447, -44391.883241162686, -187500.02235174447, -139033.48315161266, 84360.7138825314, -0.14200000000000002, 0.922, 0.334, 192.0, 0.0, 0.0, 0.0, 0.0, 0.0, 0.0, 0.0, 0.0, 0.0, 1.7184700014085877E9, 0.0, 2024-06-15 11:46:41.408
27.0, 35098.92196642423, 41881.38000743151, 64070.515521826215, -187500.02235174447, -44378.315732278315, -187500.02235174447, -139005.18584313226, 84414.0227930573, -0.14200000000000002, 0.922, 0.334, 192.0, 0.0, 0.0, 0.0, 0.0, 0.0, 0.0, 0.0, 0.0, 0.0, 1.718470001408624E9, 0.0, 2024-06-15 11:46:41.408
28.0, 35187.07724655596, 42225.8650929767, 65780.71454533513, -187500.02235174447, -44259.538562242815, -187500.02235174447, -138835.73726841656, 84814.78957114097, -0.14200000000000002, 0.922, 0.334, 192.0, 0.0, 0.0, 0.0, 0.0, 0.0, 0.0, 0.0, 0.0, 0.0, 1.7184700014086351E9, 0.0, 2024-06-15 11:46:41.408
29.0, 35117.47391432213, 41898.993182062295, 65825.66390343475, -187500.02235174447, -44289.5569550463, -187500.02235174447, -138863.2746175855, 84706.47301751054, -0.14200000000000002, 0.922, 0.338, 192.0, 251.0, 144.0, 28.0, 208.0, 10.0, 144.0, 0.0, 0.0, 0.0, 1.7184700014086456E9, 0.0, 2024-06-15 11:46:41.408
30.0, 35024.937692277155, 41626.95010029675, 64257.75608512832, -187500.02235174447, -44344.92222606209, -187500.02235174447, -139000.73784598566, 84337.73628923134, -0.14200000000000002, 0.922, 0.338, 192.0, 0.0, 0.0, 0.0, 0.0, 0.0, 0.0, 0.0, 0.0, 0.0, 1.7184700014086716E9, 0.0, 2024-06-15 11:46:41.408
31.0, 35082.47108250512, 41824.047782903646, 63925.00566542216, -187500.02235174447, -44427.824846246825, -187500.02235174447, -138982.4541190212, 84450.21026733045, -0.14200000000000002, 0.922, 0.338, 192.0, 0.0, 0.0, 0.0, 0.0, 0.0, 0.0, 0.0, 0.0, 0.0, 1.7184700014086812E9, 0.0, 2024-06-15 11:46:41.408
32.0, 35184.9538308327, 42205.748522966926, 65546.75883612143, -187500.02235174447, -44175.47365134641, -187500.02235174447, -138774.98522698705, 84751.08709944334, -0.14200000000000002, 0.922, 0.338, 192.0, 0.0, 0.0, 0.0, 0.0, 0.0, 0.0, 0.0, 0.0, 0.0, 1.71847000140869E9, 0.0, 2024-06-15 11:46:41.408
33.0, 35156.56711537446, 42008.44967465993, 66029.10948146695, -187500.02235174447, -44292.14975740311, -187500.02235174447, -138801.69556161112, 84819.75165841004, -0.14200000000000002, 0.922, 0.338, 192.0, 0.0, 0.0, 0.0, 0.0, 0.0, 0.0, 0.0, 0.0, 0.0, 1.7184700014086993E9, 0.0, 2024-06-15 11:46:41.408
34.0, 35056.051320558945, 41652.00640583115, 64490.25893095243, -187500.02235174447, -44314.16622569159, -187500.02235174447, -138983.16937484377, 84260.15338422697, -0.14200000000000002, 0.922, 0.338, 192.0, 0.0, 0.0, 0.0, 0.0, 0.0, 0.0, 0.0, 0.0, 0.0, 1.7184700014087236E9, 0.0, 2024-06-15 11:46:41.408
35.0, 35095.99388790058, 41798.61149771351, 63824.46751886219, -187500.02235174447, -44498.18813779213, -187500.02235174447, -138998.7038372402, 84408.21133949893, -0.14200000000000002, 0.922, 0.338, 192.0, 0.0, 0.0, 0.0, 0.0, 0.0, 0.0, 0.0, 0.0, 0.0, 1.718470001408733E9, 0.0, 2024-06-15 11:46:41.408
36.0, 35212.06649685699, 42194.416188528085, 65196.685814462406, -187500.02235174447, -44223.64166064759, -187500.02235174447, -138836.87720738378, 84579.9621438935, -0.14200000000000002, 0.922, 0.338, 192.0, 0.0, 0.0, 0.0, 0.0, 0.0, 0.0, 0.0, 0.0, 0.0, 1.718470001408742E9, 0.0, 2024-06-15 11:46:41.408
37.0, 35199.705982173204, 42126.2433679394, 66193.55126542464, -187500.02235174447, -44263.94185590051, -187500.02235174447, -138725.81138918537, 84943.58032269243, -0.14200000000000002, 0.922, 0.338, 192.0, 0.0, 0.0, 0.0, 0.0, 0.0, 0.0, 0.0, 0.0, 0.0, 1.7184700014087508E9, 0.0, 2024-06-15 11:46:41.408
38.0, 35109.606100273864, 41720.06746769756, 64796.25431254558, -187500.02235174447, -44245.16639055806, -187500.02235174447, -138908.87217627434, 84274.637314634, -0.14200000000000002, 0.922, 0.338, 192.0, 0.0, 0.0, 0.0, 0.0, 0.0, 0.0, 0.0, 0.0, 0.0, 1.7184700014087596E9, 0.0, 2024-06-15 11:46:41.408
39.0, 35121.27371087953, 41797.60566921302, 63814.655103046316, -187500.02235174447, -44513.163806577184, -187500.02235174447, -138976.88853465184, 84376.29304841674, -0.15, 0.926, 0.338, 192.0, 251.0, 80.0, 28.0, 240.0, 10.0, 144.0, 0.0, 0.0, 0.0, 1.7184700014087687E9, 0.0, 2024-06-15 11:46:41.408
40.0, 35233.79239246755, 42167.77290913736, 64883.29200545455, -187500.02235174447, -44227.32969848272, -187500.02235174447, -138835.71491667212, 84463.62131400363, -0.15, 0.926, 0.338, 192.0, 0.0, 0.0, 0.0, 0.0, 0.0, 0.0, 0.0, 0.0, 0.0, 1.7184700014087777E9, 0.0, 2024-06-15 11:46:41.408
41.0, 35261.866183503415, 42245.959311242026, 66224.41902451742, -187500.02235174447, -44271.85437343769, -187500.02235174447, -138717.31772629236, 84941.36749999136, -0.15, 0.926, 0.338, 192.0, 0.0, 0.0, 0.0, 0.0, 0.0, 0.0, 0.0, 0.0, 0.0, 1.7184700014087863E9, 0.0, 2024-06-15 11:46:41.408
42.0, 35166.17836549025, 41799.79614016964, 65087.49754279823, -187500.02235174447, -44261.639626221615, -187500.02235174447, -138905.07237971693, 84275.06199777866, -0.15, 0.926, 0.338, 192.0, 0.0, 0.0, 0.0, 0.0, 0.0, 0.0, 0.0, 0.0, 0.0, 1.7184700014087954E9, 0.0, 2024-06-15 11:46:41.408
43.0, 35142.50786811207, 41795.03521860066, 63867.74049612767, -187500.02235174447, -44536.70019348862, -187500.02235174447, -138995.4628342942, 84298.28546026773, -0.15, 0.926, 0.338, 192.0, 0.0, 0.0, 0.0, 0.0, 0.0, 0.0, 0.0, 0.0, 0.0, 1.7184700014088044E9, 0.0, 2024-06-15 11:46:41.408
44.0, 35237.90511344733, 42117.61559457965, 64589.90300773418, -187500.02235174447, -44272.79314670481, -187500.02235174447, -138860.88298092879, 84361.54089707624, -0.15, 0.926, 0.338, 192.0, 0.0, 0.0, 0.0, 0.0, 0.0, 0.0, 0.0, 0.0, 0.0, 1.7184700014088132E9, 0.0, 2024-06-15 11:46:41.408
45.0, 35285.93901228178, 42308.23127129451, 66213.86900113452, -187500.02235174447, -44200.932288281, -187500.02235174447, -138668.0768332573, 84939.44524996821, -0.15, 0.926, 0.338, 192.0, 0.0, 0.0, 0.0, 0.0, 0.0, 0.0, 0.0, 0.0, 0.0, 1.7184700014088223E9, 0.0, 2024-06-15 11:46:41.408
46.0, 35207.39498226583, 41877.26728645174, 65447.6959046955, -187500.02235174447, -44175.96538972442, -187500.02235174447, -138799.39333193222, 84407.96547030992, -0.15, 0.926, 0.338, 192.0, 0.0, 0.0, 0.0, 0.0, 0.0, 0.0, 0.0, 0.0, 0.0, 1.718470001408831E9, 0.0, 2024-06-15 11:46:41.408
47.0, 35158.35525493089, 41778.78550038165, 64009.76348039669, -187500.02235174447, -44441.28059640892, -187500.02235174447, -138937.08007777692, 84255.86184929156, -0.15, 0.926, 0.338, 192.0, 0.0, 0.0, 0.0, 0.0, 0.0, 0.0, 0.0, 0.0, 0.0, 1.71847000140884E9, 0.0, 2024-06-15 11:46:41.408
48.0, 35248.54454380805, 42069.31347481173, 64331.338027875194, -187500.02235174447, -44305.04671395382, -187500.02235174447, -138857.64197798277, 84310.02012610676, -0.15, 0.926, 0.338, 192.0, 0.0, 0.0, 0.0, 0.0, 0.0, 0.0, 0.0, 0.0, 0.0, 1.7184700014088488E9, 0.0, 2024-06-15 11:46:41.408
49.0, 35310.48122769371, 42362.9483417211, 66094.6447962099, -187500.02235174447, -44115.57097620618, -187500.02235174447, -138622.65808852413, 84894.85351977986, -0.152, 0.922, 0.336, 192.0, 251.0, 64.0, 28.0, 208.0, 10.0, 128.0, 0.0, 0.0, 0.0, 1.718470001408858E9, 0.0, 2024-06-15 11:46:41.408
50.0, 35236.22873261318, 41976.97841846686, 65760.97795498109, -187500.02235174447, -44126.45627575592, -187500.02235174447, -138712.9367843791, 84565.27704778637, -0.152, 0.922, 0.336, 192.0, 0.0, 0.0, 0.0, 0.0, 0.0, 0.0, 0.0, 0.0, 0.0, 1.718470001408867E9, 0.0, 2024-06-15 11:46:41.408
51.0, 35162.110347999376, 41770.69416888883, 64184.44236331491, -187500.02235174447, -44345.65983362911, -187500.02235174447, -138887.5933155529, 84209.66079350244, -0.152, 0.922, 0.336, 192.0, 0.0, 0.0, 0.0, 0.0, 0.0, 0.0, 0.0, 0.0, 0.0, 1.7184700014088757E9, 0.0, 2024-06-15 11:46:41.408
52.0, 35241.50374430463, 42016.33984045265, 64094.007205248745, -187500.02235174447, -44386.272953304404, -187500.02235174447, -138884.1287951623, 84255.4371661469, -0.152, 0.922, 0.336, 192.0, 0.0, 0.0, 0.0, 0.0, 0.0, 0.0, 0.0, 0.0, 0.0, 1.7184700014088848E9, 0.0, 2024-06-15 11:46:41.408
53.0, 35330.19546630329, 42377.74519655052, 65848.30622056797, -187500.02235174447, -44090.60407764961, -187500.02235174447, -138640.76300153293, 84767.13565196225, -0.152, 0.922, 0.336, 192.0, 0.0, 0.0, 0.0, 0.0, 0.0, 0.0, 0.0, 0.0, 0.0, 1.7184700014088936E9, 0.0, 2024-06-15 11:46:41.408
54.0, 35281.26749769062, 42088.40186457657, 66004.65667303285, -187500.02235174447, -44125.07046759969, -187500.02235174447, -138675.76583334993, 84710.67514546814, -0.152, 0.922, 0.336, 192.0, 0.0, 0.0, 0.0, 0.0, 0.0, 0.0, 0.0, 0.0, 0.0, 1.7184700014089026E9, 0.0, 2024-06-15 11:46:41.408
55.0, 35203.908110130804, 41806.27814606168, 64373.38165919563, -187500.02235174447, -44293.13323415914, -187500.02235174447, -138895.4387778567, 84160.59871442303, -0.152, 0.922, 0.336, 192.0, 0.0, 0.0, 0.0, 0.0, 0.0, 0.0, 0.0, 0.0, 0.0, 1.7184700014089115E9, 0.0, 2024-06-15 11:46:41.408
56.0, 35250.0197589421, 41988.824843028175, 63927.062025912055, -187500.02235174447, -44466.403957176684, -187500.02235174447, -138918.4834263901, 84240.12622119501, -0.152, 0.922, 0.336, 192.0, 0.0, 0.0, 0.0, 0.0, 0.0, 0.0, 0.0, 0.0, 0.0, 1.7184700014089203E9, 0.0, 2024-06-15 11:46:41.408
57.0, 35343.53945774311, 42370.659693558184, 65542.55670816383, -187500.02235174447, -44094.18035676245, -187500.02235174447, -138684.95240032105, 84631.03587997388, -0.152, 0.922, 0.336, 192.0, 0.0, 0.0, 0.0, 0.0, 0.0, 0.0, 0.0, 0.0, 0.0, 1.7184700014089293E9, 0.0, 2024-06-15 11:46:41.408
58.0, 35312.9846230727, 42196.60665948471, 66211.76793715572, -187500.02235174447, -44100.03651380975, -187500.02235174447, -138623.79802749134, 84863.87400196481, -0.152, 0.922, 0.336, 192.0, 0.0, 0.0, 0.0, 0.0, 0.0, 0.0, 0.0, 0.0, 0.0, 1.7184700014089382E9, 0.0, 2024-06-15 11:46:41.408
59.0, 35228.092697631444, 41827.825227716596, 64657.964069600595, -187500.02235174447, -44180.10046244865, -187500.02235174447, -138835.64786143875, 84180.20119431034, -0.15, 0.92, 0.336, 192.0, 251.0, 80.0, 28.0, 192.0, 10.0, 128.0, 0.0, 0.0, 0.0, 1.718470001408947E9, 0.0, 2024-06-15 11:46:41.408
60.0, 35254.19953515525, 41954.15728737799, 63848.87562380739, -187500.02235174447, -44497.04819882491, -187500.02235174447, -138921.25504270257, 84229.66560478993, -0.15, 0.92, 0.336, 192.0, 0.0, 0.0, 0.0, 0.0, 0.0, 0.0, 0.0, 0.0, 0.0, 1.718470001408956E9, 0.0, 2024-06-15 11:46:41.408
61.0, 35345.23819032171, 42328.97369014903, 65205.626512244526, -187500.02235174447, -44109.13367380306, -187500.02235174447, -138719.4411420156, 84485.68248578101, -0.15, 0.92, 0.336, 192.0, 0.0, 0.0, 0.0, 0.0, 0.0, 0.0, 0.0, 0.0, 0.0, 1.7184700014089649E9, 0.0, 2024-06-15 11:46:41.408
62.0, 35343.36064378746, 42291.5792216753, 66308.03690052473, -187500.02235174447, -44105.669153412484, -187500.02235174447, -138612.8680244527, 84933.00794756509, -0.15, 0.92, 0.336, 192.0, 0.0, 0.0, 0.0, 0.0, 0.0, 0.0, 0.0, 0.0, 0.0, 1.7184700014089737E9, 0.0, 2024-06-15 11:46:41.408
63.0, 35242.80014548304, 41853.01564371773, 64937.29382005857, -187500.02235174447, -44133.45237177043, -187500.02235174447, -138816.5594716739, 84200.69774397585, -0.15, 0.92, 0.336, 192.0, 0.0, 0.0, 0.0, 0.0, 0.0, 0.0, 0.0, 0.0, 0.0, 1.7184700014089828E9, 0.0, 2024-06-15 11:46:41.408
64.0, 35241.14611639334, 41907.82212112214, 63857.45869367823, -187500.02235174447, -44477.82569859335, -187500.02235174447, -138898.5903738249, 84218.95911919585, -0.15, 0.92, 0.336, 192.0, 0.0, 0.0, 0.0, 0.0, 0.0, 0.0, 0.0, 0.0, 0.0, 1.7184700014089916E9, 0.0, 2024-06-15 11:46:41.408
65.0, 35341.058414108564, 42267.01465451893, 64849.8090922605, -187500.02235174447, -44163.82839248519, -187500.02235174447, -138773.57706708636, 84342.67602475596, -0.15, 0.92, 0.336, 192.0, 0.0, 0.0, 0.0, 0.0, 0.0, 0.0, 0.0, 0.0, 0.0, 1.7184700018280523E9, 0.0, 2024-06-15 11:46:41.828
66.0, 35355.02825439313, 42361.47312658705, 66348.94059287795, -187500.02235174447, -44059.736318556825, -187500.02235174447, -138577.41815774658, 84982.15943362229, -0.15, 0.92, 0.336, 192.0, 0.0, 0.0, 0.0, 0.0, 0.0, 0.0, 0.0, 0.0, 0.0, 1.7184700018281703E9, 0.0, 2024-06-15 11:46:41.828
67.0, 35264.99542772715, 41911.62191767954, 65280.68367012545, -187500.02235174447, -44042.16784741495, -187500.02235174447, -138738.08249689132, 84318.62554772205, -0.15, 0.92, 0.336, 192.0, 0.0, 0.0, 0.0, 0.0, 0.0, 0.0, 0.0, 0.0, 0.0, 1.718470001828185E9, 0.0, 2024-06-15 11:46:41.828
68.0, 35242.19664838274, 41885.20215573337, 63923.93278168831, -187500.02235174447, -44424.7850090009, -187500.02235174447, -138875.61278052483, 84193.20990958333, -0.15, 0.92, 0.336, 192.0, 0.0, 0.0, 0.0, 0.0, 0.0, 0.0, 0.0, 0.0, 0.0, 1.718470001828196E9, 0.0, 2024-06-15 11:46:41.828
69.0, 35334.8893326389, 42206.2626130894, 64551.10037935977, -187500.02235174447, -44193.489157377386, -187500.02235174447, -138775.6557793207, 84271.91040181046, -0.146, 0.922, 0.336, 192.0, 251.0, 112.0, 28.0, 208.0, 10.0, 128.0, 0.0, 0.0, 0.0, 1.7184700018282068E9, 0.0, 2024-06-15 11:46:41.828
70.0, 35364.17011787536, 42407.83064458736, 66278.15261818799, -187500.02235174447, -44010.7859981997, -187500.02235174447, -138557.43569820354, 84947.76009890558, -0.146, 0.922, 0.336, 192.0, 0.0, 0.0, 0.0, 0.0, 0.0, 0.0, 0.0, 0.0, 0.0, 1.7184700018282168E9, 0.0, 2024-06-15 11:46:41.828
71.0, 35267.2753056616, 41957.33123509064, 65592.95989191055, -187500.02235174447, -44003.72284695183, -187500.02235174447, -138682.20313575305, 84439.36967126963, -0.146, 0.922, 0.336, 192.0, 0.0, 0.0, 0.0, 0.0, 0.0, 0.0, 0.0, 0.0, 0.0, 1.7184700018282273E9, 0.0, 2024-06-15 11:46:41.828
72.0, 35218.63790972685, 41833.94960569735, 64029.09773935053, -187500.02235174447, -44370.80554614133, -187500.02235174447, -138866.44856529817, 84127.54048437363, -0.146, 0.922, 0.336, 192.0, 0.0, 0.0, 0.0, 0.0, 0.0, 0.0, 0.0, 0.0, 0.0, 1.718470001828237E9, 0.0, 2024-06-15 11:46:41.828
73.0, 35298.0313060321, 42114.2404811669, 64274.67635568099, -187500.02235174447, -44256.72224244145, -187500.02235174447, -138789.4021021607, 84208.18557836839, -0.146, 0.922, 0.336, 192.0, 0.0, 0.0, 0.0, 0.0, 0.0, 0.0, 0.0, 0.0, 0.0, 1.7184700018282468E9, 0.0, 2024-06-15 11:46:41.828
74.0, 35363.49956554169, 42423.74508663954, 66106.7594417047, -187500.02235174447, -43961.232180742285, -187500.02235174447, -138548.87498007715, 84858.24136236208, -0.146, 0.922, 0.336, 192.0, 0.0, 0.0, 0.0, 0.0, 0.0, 0.0, 0.0, 0.0, 0.0, 1.7184700018282568E9, 0.0, 2024-06-15 11:46:41.828
75.0, 35292.10809375144, 42042.714898909915, 65883.01847970707, -187500.02235174447, -43973.615047170526, -187500.02235174447, -138629.27420488288, 84585.43832128505, -0.146, 0.922, 0.336, 192.0, 0.0, 0.0, 0.0, 0.0, 0.0, 0.0, 0.0, 0.0, 0.0, 1.7184700018282666E9, 0.0, 2024-06-15 11:46:41.828
76.0, 35220.38134579436, 41811.46375077531, 64179.52497953475, -187500.02235174447, -44302.99035346393, -187500.02235174447, -138868.86255369932, 84063.32392255354, -0.146, 0.922, 0.336, 192.0, 0.0, 0.0, 0.0, 0.0, 0.0, 0.0, 0.0, 0.0, 0.0, 1.7184700018282769E9, 0.0, 2024-06-15 11:46:41.828
77.0, 35291.10226525096, 42050.31449202472, 64023.129823580966, -187500.02235174447, -44363.60828442673, -187500.02235174447, -138842.86747489782, 84149.9145805734, -0.146, 0.922, 0.336, 192.0, 0.0, 0.0, 0.0, 0.0, 0.0, 0.0, 0.0, 0.0, 0.0, 1.7184700018282871E9, 0.0, 2024-06-15 11:46:41.828
78.0, 35376.016542436664, 42421.57696742737, 65818.39958648678, -187500.02235174447, -43983.695683919876, -187500.02235174447, -138610.9234226851, 84709.244633823, -0.146, 0.922, 0.336, 192.0, 0.0, 0.0, 0.0, 0.0, 0.0, 0.0, 0.0, 0.0, 0.0, 1.7184700018282967E9, 0.0, 2024-06-15 11:46:41.828
79.0, 35321.925320854825, 42143.23069372543, 66125.60196228052, -187500.02235174447, -43973.0786053036, -187500.02235174447, -138603.6591057371, 84746.70615753009, -0.146, 0.922, 0.336, 192.0, 0.0, 0.0, 0.0, 0.0, 0.0, 0.0, 0.0, 0.0, 0.0, 1.7184700018283064E9, 0.0, 2024-06-15 11:46:41.828
80.0, 35229.567912765495, 41813.09542812055, 64434.71484598099, -187500.02235174447, -44176.85945950264, -187500.02235174447, -138820.85100660933, 84085.76507398667, -0.146, 0.92, 0.334, 192.0, 251.0, 112.0, 28.0, 192.0, 10.0, 112.0, 0.0, 0.0, 0.0, 1.718470001828316E9, 0.0, 2024-06-15 11:46:41.828
81.0, 35262.73790153717, 41978.43128185646, 63876.435324720784, -187500.02235174447, -44406.36717156973, -187500.02235174447, -138852.18815233567, 84148.75228986172, -0.146, 0.92, 0.334, 192.0, 0.0, 0.0, 0.0, 0.0, 0.0, 0.0, 0.0, 0.0, 0.0, 1.7184700018283255E9, 0.0, 2024-06-15 11:46:41.828
82.0, 35357.79987070559, 42372.93957149262, 65495.93096923006, -187500.02235174447, -43974.531468693196, -187500.02235174447, -138641.1206294442, 84560.69494017302, -0.146, 0.92, 0.334, 192.0, 0.0, 0.0, 0.0, 0.0, 0.0, 0.0, 0.0, 0.0, 0.0, 1.7184700018283355E9, 0.0, 2024-06-15 11:46:41.828
84.0, 35237.3686715804, 41822.863140447516, 64692.9669014176, -187500.02235174447, -44099.812996365195, -187500.02235174447, -138804.4671779236, 84090.41423683337, -0.146, 0.92, 0.334, 192.0, 0.0, 0.0, 0.0, 0.0, 0.0, 0.0, 0.0, 0.0, 0.0, 1.7184700018283453E9, 0.0, 2024-06-15 11:46:41.828
85.0, 35259.72041603571, 41941.148572105005, 63762.30731753199, -187500.02235174447, -44480.75377711699, -187500.02235174447, -138900.75849303705, 84106.01575446317, -0.146, 0.92, 0.334, 192.0, 0.0, 0.0, 0.0, 0.0, 0.0, 0.0, 0.0, 0.0, 0.0, 1.718470001828355E9, 0.0, 2024-06-15 11:46:41.828
86.0, 35356.07878638253, 42335.56745476335, 65149.74715110626, -187500.02235174447, -44002.80642542916, -187500.02235174447, -138678.40333919565, 84426.91974960802, -0.146, 0.92, 0.334, 192.0, 0.0, 0.0, 0.0, 0.0, 0.0, 0.0, 0.0, 0.0, 0.0, 1.7184700018283648E9, 0.0, 2024-06-15 11:46:41.828
87.0, 35350.71436771326, 42323.676326713125, 66440.49333816688, -187500.02235174447, -43883.04577863762, -187500.02235174447, -138502.71862777695, 84989.557861037, -0.146, 0.92, 0.334, 192.0, 0.0, 0.0, 0.0, 0.0, 0.0, 0.0, 0.0, 0.0, 0.0, 1.7184700018283744E9, 0.0, 2024-06-15 11:46:41.828
88.0, 35257.462889845716, 41867.07489098011, 65032.467547949265, -187500.02235174447, -43971.60339016955, -187500.02235174447, -138728.38183979772, 84188.873671159, -0.146, 0.92, 0.334, 192.0, 0.0, 0.0, 0.0, 0.0, 0.0, 0.0, 0.0, 0.0, 0.0, 1.7184700018283904E9, 0.0, 2024-06-15 11:46:41.828
89.0, 35237.815706469504, 41889.02430403523, 63757.41228549627, -187500.02235174447, -44450.22129419104, -187500.02235174447, -138886.7439492636, 84097.2985741256, -0.146, 0.92, 0.334, 192.0, 0.0, 0.0, 0.0, 0.0, 0.0, 0.0, 0.0, 0.0, 0.0, 1.7184700018284016E9, 0.0, 2024-06-15 11:46:41.828
90.0, 35327.580312202015, 42251.971930500506, 64793.01330959956, -187500.02235174447, -44031.014326931756, -187500.02235174447, -138694.18367078112, 84317.03857386572, -0.14, 0.918, 0.336, 192.0, 251.0, 160.0, 28.0, 176.0, 10.0, 128.0, 0.0, 0.0, 0.0, 1.7184700018284118E9, 0.0, 2024-06-15 11:46:41.828
91.0, 35357.68811198331, 42382.1037867193, 66439.06282652174, -187500.02235174447, -43833.42490594684, -187500.02235174447, -138476.81295595324, 85008.10980893491, -0.14, 0.918, 0.336, 192.0, 0.0, 0.0, 0.0, 0.0, 0.0, 0.0, 0.0, 0.0, 0.0, 1.7184700018284216E9, 0.0, 2024-06-15 11:46:41.828
92.0, 35267.811747528525, 41911.42075197944, 65359.20534839694, -187500.02235174447, -43895.518052043684, -187500.02235174447, -138680.6385136412, 84292.20578577588, -0.14, 0.918, 0.336, 192.0, 0.0, 0.0, 0.0, 0.0, 0.0, 0.0, 0.0, 0.0, 0.0, 1.7184700018284316E9, 0.0, 2024-06-15 11:46:41.828
93.0, 35232.13836337785, 41848.99232971577, 63820.9135914938, -187500.02235174447, -44385.49064224847, -187500.02235174447, -138874.51754504652, 84055.54551548309, -0.14, 0.918, 0.336, 192.0, 0.0, 0.0, 0.0, 0.0, 0.0, 0.0, 0.0, 0.0, 0.0, 1.7184700018284411E9, 0.0, 2024-06-15 11:46:41.828
94.0, 35316.91853009684, 42174.76900515187, 64410.53025848034, -187500.02235174447, -44148.85272370013, -187500.02235174447, -138777.33216015485, 84178.88244138747, -0.14, 0.918, 0.336, 192.0, 0.0, 0.0, 0.0, 0.0, 0.0, 0.0, 0.0, 0.0, 0.0, 1.718470001828451E9, 0.0, 2024-06-15 11:46:41.828
95.0, 35358.47042303925, 42416.36901096928, 66300.05732775418, -187500.02235174447, -43832.01674604616, -187500.02235174447, -138511.52521509235, 84932.22563650915, -0.14, 0.918, 0.336, 192.0, 0.0, 0.0, 0.0, 0.0, 0.0, 0.0, 0.0, 0.0, 0.0, 1.7184700018284607E9, 0.0, 2024-06-15 11:46:41.828
96.0, 35277.825329044506, 41977.492508589334, 65668.59819514731, -187500.02235174447, -43867.06428135208, -187500.02235174447, -138655.7833738069, 84427.99263334187, -0.14, 0.918, 0.336, 192.0, 0.0, 0.0, 0.0, 0.0, 0.0, 0.0, 0.0, 0.0, 0.0, 1.7184700018284862E9, 0.0, 2024-06-15 11:46:41.828
97.0, 35227.15392436432, 41822.05847764712, 63943.37879936443, -187500.02235174447, -44317.071952470775, -187500.02235174447, -138882.4747660726, 84004.1812067248, -0.14, 0.918, 0.336, 192.0, 0.0, 0.0, 0.0, 0.0, 0.0, 0.0, 0.0, 0.0, 0.0, 1.7184700018284955E9, 0.0, 2024-06-15 11:46:41.828
98.0, 35309.90008233787, 42111.49121659889, 64096.82352505011, -187500.02235174447, -44267.54048675782, -187500.02235174447, -138845.30381504344, 84092.49294906772, -0.14, 0.918, 0.336, 192.0, 0.0, 0.0, 0.0, 0.0, 0.0, 0.0, 0.0, 0.0, 0.0, 1.7184700018285043E9, 0.0, 2024-06-15 11:46:41.828
99.0, 35370.54036504512, 42439.368956013794, 66071.22016802075, -187500.02235174447, -43849.36169974348, -187500.02235174447, -138568.2539425199, 84802.45140820162, -0.14, 0.918, 0.336, 192.0, 0.0, 0.0, 0.0, 0.0, 0.0, 0.0, 0.0, 0.0, 0.0, 1.718470001828513E9, 0.0, 2024-06-15 11:46:41.828
100.0, 35294.36561994143, 42062.853820664146, 65979.823884943, -187500.02235174447, -43842.320900240054, -187500.02235174447, -138614.5220535424, 84600.54810053683, -0.14, 0.924, 0.326, 192.0, 251.0, 160.0, 28.0, 224.0, 10.0, 48.0, 0.0, 0.0, 0.0, 1.7184700018285215E9, 0.0, 2024-06-15 11:46:41.828
101.0, 35212.513531746095, 41793.22472729978, 64156.569737979145, -187500.02235174447, -44207.41429417304, -187500.02235174447, -138857.50786751605, 83989.78668329558, -0.14, 0.924, 0.326, 192.0, 0.0, 0.0, 0.0, 0.0, 0.0, 0.0, 0.0, 0.0, 0.0, 1.7184700018285303E9, 0.0, 2024-06-15 11:46:41.828
102.0, 35281.31220117953, 42030.60025341514, 63856.76578960011, -187500.02235174447, -44367.18456353957, -187500.02235174447, -138888.2415161421, 84045.19665780028, -0.14, 0.924, 0.326, 192.0, 0.0, 0.0, 0.0, 0.0, 0.0, 0.0, 0.0, 0.0, 0.0, 1.7184700018285391E9, 0.0, 2024-06-15 11:46:41.828
103.0, 35362.06905389656, 42416.25725224701, 65775.64069934377, -187500.02235174447, -43852.02155733366, -187500.02235174447, -138599.59108824623, 84661.72482511101, -0.14, 0.924, 0.326, 192.0, 0.0, 0.0, 0.0, 0.0, 0.0, 0.0, 0.0, 0.0, 0.0, 1.7184700018285477E9, 0.0, 2024-06-15 11:46:41.828
104.0, 35323.19937028878, 42166.65532191459, 66213.48902147877, -187500.02235174447, -43843.12556304045, -187500.02235174447, -138589.08576835226, 84748.38253836424, -0.14, 0.924, 0.326, 192.0, 0.0, 0.0, 0.0, 0.0, 0.0, 0.0, 0.0, 0.0, 0.0, 1.7184700018285563E9, 0.0, 2024-06-15 11:46:41.828
105.0, 35241.369633837894, 41814.21301534331, 64378.50020867589, -187500.02235174447, -44165.08009017469, -187500.02235174447, -138891.37076036583, 83949.17356362028, -0.14, 0.924, 0.326, 192.0, 0.0, 0.0, 0.0, 0.0, 0.0, 0.0, 0.0, 0.0, 0.0, 1.7184700018285651E9, 0.0, 2024-06-15 11:46:41.828
106.0, 35270.00221848515, 41978.27481964527, 63714.83221230892, -187500.02235174447, -44443.35930864326, -187500.02235174447, -138920.60684211337, 84029.90806459285, -0.14, 0.924, 0.326, 192.0, 0.0, 0.0, 0.0, 0.0, 0.0, 0.0, 0.0, 0.0, 0.0, 1.7184700018285737E9, 0.0, 2024-06-15 11:46:41.828
107.0, 35375.23423138073, 42394.352542680805, 65427.71344515246, -187500.02235174447, -43896.90386019991, -187500.02235174447, -138659.225542453, 84500.56874758826, -0.14, 0.924, 0.326, 192.0, 0.0, 0.0, 0.0, 0.0, 0.0, 0.0, 0.0, 0.0, 0.0, 1.7184700018285828E9, 0.0, 2024-06-15 11:46:41.828
108.0, 35349.06033862357, 42271.686169110086, 66414.69942506545, -187500.02235174447, -43811.90017603638, -187500.02235174447, -138543.62232013015, 84897.35691515886, -0.14, 0.924, 0.326, 192.0, 0.0, 0.0, 0.0, 0.0, 0.0, 0.0, 0.0, 0.0, 0.0, 1.718470001828591E9, 0.0, 2024-06-15 11:46:41.828
109.0, 35243.96243619471, 41828.6745940059, 64740.82198629642, -187500.02235174447, -44003.23110857381, -187500.02235174447, -138803.75192210102, 84035.16072453985, -0.14, 0.924, 0.326, 192.0, 0.0, 0.0, 0.0, 0.0, 0.0, 0.0, 0.0, 0.0, 0.0, 1.7184700018286057E9, 0.0, 2024-06-15 11:46:41.828
110.0, 35260.45802360273, 41928.832760910125, 63657.67880173669, -187500.02235174447, -44453.23877969251, -187500.02235174447, -138922.0820572474, 84001.96838402371, -0.148, 0.924, 0.332, 192.0, 251.0, 96.0, 28.0, 224.0, 10.0, 96.0, 0.0, 0.0, 0.0, 1.7184700018286147E9, 0.0, 2024-06-15 11:46:41.828
111.0, 35363.49956554169, 42335.075716385334, 65041.765873642675, -187500.02235174447, -43950.39158468146, -187500.02235174447, -138710.1875198111, 84320.52544600076, -0.148, 0.924, 0.332, 192.0, 0.0, 0.0, 0.0, 0.0, 0.0, 0.0, 0.0, 0.0, 0.0, 1.7184700018286235E9, 0.0, 2024-06-15 11:46:41.828
112.0, 35370.31684760057, 42364.021225454955, 66495.72449871594, -187500.02235174447, -43776.51736456363, -187500.02235174447, -138515.81675002776, 84948.27418902806, -0.148, 0.924, 0.332, 192.0, 0.0, 0.0, 0.0, 0.0, 0.0, 0.0, 0.0, 0.0, 0.0, 1.7184700018286364E9, 0.0, 2024-06-15 11:46:41.828
113.0, 35277.870032533414, 41891.48299592531, 65098.78517374816, -187500.02235174447, -43896.300363099625, -187500.02235174447, -138751.6053022868, 84120.56674010358, -0.148, 0.924, 0.332, 192.0, 0.0, 0.0, 0.0, 0.0, 0.0, 0.0, 0.0, 0.0, 0.0, 1.718470001828645E9, 0.0, 2024-06-15 11:46:41.828
114.0, 35260.480375347186, 41893.22643199282, 63689.708851541145, -187500.02235174447, -44414.324392595816, -187500.02235174447, -138913.8342635434, 83972.6205435539, -0.148, 0.924, 0.332, 192.0, 0.0, 0.0, 0.0, 0.0, 0.0, 0.0, 0.0, 0.0, 0.0, 1.7184700018286536E9, 0.0, 2024-06-15 11:46:41.828
115.0, 35358.693940483805, 42263.46072715053, 64668.13411332776, -187500.02235174447, -44021.47013204934, -187500.02235174447, -138754.53338081043, 84185.02917111268, -0.148, 0.924, 0.332, 192.0, 0.0, 0.0, 0.0, 0.0, 0.0, 0.0, 0.0, 0.0, 0.0, 1.7184700018286624E9, 0.0, 2024-06-15 11:46:41.828
116.0, 35390.61223156598, 42422.895720350236, 66468.12009431364, -187500.02235174447, -43749.98584389518, -187500.02235174447, -138508.17245342405, 84939.22173252366, -0.148, 0.924, 0.332, 192.0, 0.0, 0.0, 0.0, 0.0, 0.0, 0.0, 0.0, 0.0, 0.0, 1.7184700018286712E9, 0.0, 2024-06-15 11:46:41.828
117.0, 35288.88944254988, 41936.20883658038, 65440.386884258616, -187500.02235174447, -43835.01187980317, -187500.02235174447, -138711.14864482268, 84235.41000311494, -0.148, 0.924, 0.332, 192.0, 0.0, 0.0, 0.0, 0.0, 0.0, 0.0, 0.0, 0.0, 0.0, 1.71847000182868E9, 0.0, 2024-06-15 11:46:41.828
118.0, 35241.794316982545, 41840.07398367811, 63750.37148599285, -187500.02235174447, -44383.23311605849, -187500.02235174447, -138938.8011621, 83901.2067200192, -0.148, 0.924, 0.332, 192.0, 0.0, 0.0, 0.0, 0.0, 0.0, 0.0, 0.0, 0.0, 0.0, 1.7184700018286886E9, 0.0, 2024-06-15 11:46:41.828
119.0, 35335.2916640391, 42171.43859522803, 64270.96596610141, -187500.02235174447, -44182.49209910537, -187500.02235174447, -138858.6254547388, 84031.53974193809, -0.148, 0.924, 0.332, 192.0, 0.0, 0.0, 0.0, 0.0, 0.0, 0.0, 0.0, 0.0, 0.0, 1.7184700018286974E9, 0.0, 2024-06-15 11:46:41.828
120.0, 35378.18466164883, 42438.67605193568, 66306.18170573494, -187500.02235174447, -43765.09562314697, -187500.02235174447, -138547.5115236654, 84855.98383617209, -0.148, 0.924, 0.332, 192.0, 0.0, 0.0, 0.0, 0.0, 0.0, 0.0, 0.0, 0.0, 0.0, 1.718470001828706E9, 0.0, 2024-06-15 11:46:41.828
121.0, 35307.55314917006, 42009.83548281616, 65797.18778099869, -187500.02235174447, -43770.81766972753, -187500.02235174447, -138646.10506845775, 84429.3784414981, -0.15, 0.918, 0.336, 192.0, 251.0, 80.0, 28.0, 176.0, 10.0, 128.0, 0.0, 0.0, 0.0, 1.718470001828715E9, 0.0, 2024-06-15 11:46:41.828
122.0, 35247.02462518509, 41815.79998919964, 63917.070796140535, -187500.02235174447, -44292.50738531439, -187500.02235174447, -138933.10146726388, 83881.13485349833, -0.15, 0.918, 0.336, 192.0, 0.0, 0.0, 0.0, 0.0, 0.0, 0.0, 0.0, 0.0, 0.0, 1.7184700018287237E9, 0.0, 2024-06-15 11:46:41.828
123.0, 35323.42288773333, 42097.96841120344, 63977.867541058964, -187500.02235174447, -44287.14296664512, -187500.02235174447, -138907.37460939583, 83979.1249011904, -0.15, 0.918, 0.336, 192.0, 0.0, 0.0, 0.0, 0.0, 0.0, 0.0, 0.0, 0.0, 0.0, 1.7184700018287325E9, 0.0, 2024-06-15 11:46:41.828
124.0, 35396.021353724165, 42455.1716393437, 66061.7877318606, -187500.02235174447, -43762.502820790156, -187500.02235174447, -138580.6144572037, 84741.69936677211, -0.15, 0.918, 0.336, 192.0, 0.0, 0.0, 0.0, 0.0, 0.0, 0.0, 0.0, 0.0, 0.0, 1.7184700018287413E9, 0.0, 2024-06-15 11:46:41.828
125.0, 35332.85532389347, 42104.9868589624, 66096.07530785505, -187500.02235174447, -43744.867294414915, -187500.02235174447, -138606.25190809392, 84601.28570810387, -0.15, 0.918, 0.336, 192.0, 0.0, 0.0, 0.0, 0.0, 0.0, 0.0, 0.0, 0.0, 0.0, 1.7184700018287497E9, 0.0, 2024-06-15 11:46:41.828
127.0, 35297.316050209534, 42023.80532310073, 63777.12652410586, -187500.02235174447, -44339.021365525885, -187500.02235174447, -138908.69336231868, 83942.53509551706, -0.15, 0.918, 0.336, 192.0, 0.0, 0.0, 0.0, 0.0, 0.0, 0.0, 0.0, 0.0, 0.0, 1.718470001828774E9, 0.0, 2024-06-15 11:46:41.828
128.0, 35400.96108924879, 42436.15030481223, 65735.07228315738, -187500.02235174447, -43767.71077724824, -187500.02235174447, -138611.6163267632, 84556.22459128196, -0.15, 0.918, 0.336, 192.0, 0.0, 0.0, 0.0, 0.0, 0.0, 0.0, 0.0, 0.0, 0.0, 1.7184700018287828E9, 0.0, 2024-06-15 11:46:41.828
129.0, 35361.17498411834, 42213.03519165936, 66332.53441244774, -187500.02235174447, -43718.246366768646, -187500.02235174447, -138561.90604709458, 84732.69161375661, -0.15, 0.918, 0.336, 192.0, 0.0, 0.0, 0.0, 0.0, 0.0, 0.0, 0.0, 0.0, 0.0, 1.718470001828792E9, 0.0, 2024-06-15 11:46:41.828
130.0, 35267.61058182843, 41821.83496020257, 64437.397055315625, -187500.02235174447, -44059.02106273426, -187500.02235174447, -138887.77212950852, 83853.79867002949, -0.15, 0.918, 0.336, 192.0, 0.0, 0.0, 0.0, 0.0, 0.0, 0.0, 0.0, 0.0, 0.0, 1.7184700018288012E9, 0.0, 2024-06-15 11:46:41.828
131.0, 35296.1314077534, 41972.35160736461, 63577.63720484224, -187500.02235174447, -44482.58662016233, -187500.02235174447, -139022.5084450851, 83832.07277441894, -0.14400000000000002, 0.918, 0.334, 192.0, 251.0, 128.0, 28.0, 176.0, 10.0, 112.0, 0.0, 0.0, 0.0, 1.7184700018288121E9, 0.0, 2024-06-15 11:46:41.828
132.0, 35384.44315009632, 42384.58483035384, 65317.29582754324, -187500.02235174447, -43878.01663613518, -187500.02235174447, -138727.9348049086, 84341.42432706646, -0.14400000000000002, 0.918, 0.334, 192.0, 0.0, 0.0, 0.0, 0.0, 0.0, 0.0, 0.0, 0.0, 0.0, 1.7184700018288214E9, 0.0, 2024-06-15 11:46:41.828
133.0, 35371.210917378776, 42300.09523631278, 66478.91598688555, -187500.02235174447, -43721.33090750348, -187500.02235174447, -138550.37254695565, 84848.76422271303, -0.14400000000000002, 0.918, 0.334, 192.0, 0.0, 0.0, 0.0, 0.0, 0.0, 0.0, 0.0, 0.0, 0.0, 1.7184700018288302E9, 0.0, 2024-06-15 11:46:41.828
134.0, 35274.941954009766, 41847.13713492598, 64800.90347539228, -187500.02235174447, -43936.57820660809, -187500.02235174447, -138828.83057937986, 83951.81106946601, -0.14400000000000002, 0.918, 0.334, 192.0, 0.0, 0.0, 0.0, 0.0, 0.0, 0.0, 0.0, 0.0, 0.0, 1.7184700018288393E9, 0.0, 2024-06-15 11:46:41.828
135.0, 35269.80105278505, 41912.895967113494, 63593.64105387224, -187500.02235174447, -44434.97740447252, -187500.02235174447, -138963.16456355626, 83880.97839128714, -0.14400000000000002, 0.918, 0.334, 192.0, 0.0, 0.0, 0.0, 0.0, 0.0, 0.0, 0.0, 0.0, 0.0, 1.7184700018288484E9, 0.0, 2024-06-15 11:46:41.828
136.0, 35366.11471964297, 42312.32164052983, 64944.871061428916, -187500.02235174447, -43916.19341566484, -187500.02235174447, -138739.82593295883, 84213.41588657092, -0.14400000000000002, 0.918, 0.334, 192.0, 0.0, 0.0, 0.0, 0.0, 0.0, 0.0, 0.0, 0.0, 0.0, 1.7184700018288572E9, 0.0, 2024-06-15 11:46:41.828
137.0, 35380.19631864981, 42374.7500627935, 66525.0052839524, -187500.02235174447, -43702.77895960557, -187500.02235174447, -138523.0363634868, 84901.4919878831, -0.14400000000000002, 0.918, 0.334, 192.0, 0.0, 0.0, 0.0, 0.0, 0.0, 0.0, 0.0, 0.0, 0.0, 1.7184700018288667E9, 0.0, 2024-06-15 11:46:41.828
138.0, 35280.50753837914, 41885.89505981148, 65163.24760475726, -187500.02235174447, -43833.42490594684, -187500.02235174447, -138759.04843319042, 84074.43273954782, -0.14400000000000002, 0.918, 0.334, 192.0, 0.0, 0.0, 0.0, 0.0, 0.0, 0.0, 0.0, 0.0, 0.0, 1.7184700018288758E9, 0.0, 2024-06-15 11:46:41.828
139.0, 35256.70293053424, 41868.371292158525, 63610.583676169364, -187500.02235174447, -44423.24273863348, -187500.02235174447, -138973.44636600572, 83842.82396350193, -0.14400000000000002, 0.918, 0.334, 192.0, 0.0, 0.0, 0.0, 0.0, 0.0, 0.0, 0.0, 0.0, 0.0, 1.7184700018288848E9, 0.0, 2024-06-15 11:46:41.828
140.0, 35350.08851886851, 42235.677508792585, 64532.14610006167, -187500.02235174447, -44038.81508574666, -187500.02235174447, -138804.9142128127, 84074.03040814764, -0.14400000000000002, 0.918, 0.334, 192.0, 0.0, 0.0, 0.0, 0.0, 0.0, 0.0, 0.0, 0.0, 0.0, 1.7184700018288937E9, 0.0, 2024-06-15 11:46:41.828
141.0, 35387.43828385333, 42427.12020005229, 66457.97240233092, -187500.02235174447, -43681.03071225056, -187500.02235174447, -138504.77498826684, 84897.17810120322, -0.14, 0.922, 0.342, 192.0, 251.0, 160.0, 28.0, 208.0, 10.0, 176.0, 0.0, 0.0, 0.0, 1.7184700018289025E9, 0.0, 2024-06-15 11:46:41.828
142.0, 35302.07697177851, 41951.49742978781, 65537.95224880603, -187500.02235174447, -43740.03931761257, -187500.02235174447, -138672.36836819272, 84252.30792192316, -0.14, 0.922, 0.342, 192.0, 0.0, 0.0, 0.0, 0.0, 0.0, 0.0, 0.0, 0.0, 0.0, 1.7184700018289113E9, 0.0, 2024-06-15 11:46:41.828
143.0, 35250.64560778685, 41827.0205649162, 63738.52506143154, -187500.02235174447, -44325.118580474686, -187500.02235174447, -138935.2919382205, 83829.30115810646, -0.14, 0.922, 0.342, 192.0, 0.0, 0.0, 0.0, 0.0, 0.0, 0.0, 0.0, 0.0, 0.0, 1.7184700018289204E9, 0.0, 2024-06-15 11:46:41.828
144.0, 35343.83003042103, 42162.81082186828, 64170.60663349708, -187500.02235174447, -44153.568941780206, -187500.02235174447, -138854.31156805894, 83965.44563358375, -0.14, 0.922, 0.342, 192.0, 0.0, 0.0, 0.0, 0.0, 0.0, 0.0, 0.0, 0.0, 0.0, 1.7184700018289292E9, 0.0, 2024-06-15 11:46:41.828
145.0, 35393.56266183408, 42453.80818293193, 66255.4879493103, -187500.02235174447, -43696.766340347094, -187500.02235174447, -138536.3580031822, 84781.99956202503, -0.14, 0.922, 0.342, 192.0, 0.0, 0.0, 0.0, 0.0, 0.0, 0.0, 0.0, 0.0, 0.0, 1.718470001828938E9, 0.0, 2024-06-15 11:46:41.828
146.0, 35318.12552429742, 42032.9695383274, 65864.0418486645, -187500.02235174447, -43712.94900333274, -187500.02235174447, -138625.67557402558, 84403.33865920767, -0.14, 0.922, 0.342, 192.0, 0.0, 0.0, 0.0, 0.0, 0.0, 0.0, 0.0, 0.0, 0.0, 1.718470001828947E9, 0.0, 2024-06-15 11:46:41.828
147.0, 35254.0207211996, 41812.35782055352, 63952.788883780115, -187500.02235174447, -44204.01682901583, -187500.02235174447, -138890.20846965414, 83809.38575379679, -0.14, 0.922, 0.342, 192.0, 0.0, 0.0, 0.0, 0.0, 0.0, 0.0, 0.0, 0.0, 0.0, 1.718470001828956E9, 0.0, 2024-06-15 11:46:41.828
148.0, 35319.37722198692, 42082.0316174068, 63920.490613042195, -187500.02235174447, -44225.67566939303, -187500.02235174447, -138850.04238486796, 83909.70038291221, -0.14, 0.922, 0.342, 192.0, 0.0, 0.0, 0.0, 0.0, 0.0, 0.0, 0.0, 0.0, 0.0, 1.7184700018289647E9, 0.0, 2024-06-15 11:46:41.828
149.0, 35398.77061829217, 42454.88106666578, 65998.48759156319, -187500.02235174447, -43688.9655815322, -187500.02235174447, -138537.63205261613, 84627.0796212053, -0.14, 0.922, 0.342, 192.0, 0.0, 0.0, 0.0, 0.0, 0.0, 0.0, 0.0, 0.0, 0.0, 1.7184700018289735E9, 0.0, 2024-06-15 11:46:41.828
150.0, 35342.533629242615, 42127.651527840084, 66148.28898290265, -187500.02235174447, -43697.88392756986, -187500.02235174447, -138571.51729721038, 84533.98460554893, -0.14, 0.922, 0.342, 192.0, 0.0, 0.0, 0.0, 0.0, 0.0, 0.0, 0.0, 0.0, 0.0, 1.7184700018289828E9, 0.0, 2024-06-15 11:46:41.828
151.0, 35262.424977114795, 41808.02158212919, 64209.67748280495, -187500.02235174447, -44096.035551552246, -187500.02235174447, -138855.2726930705, 83773.86883185731, -0.14200000000000002, 0.922, 0.342, 192.0, 251.0, 144.0, 28.0, 208.0, 10.0, 176.0, 0.0, 0.0, 0.0, 1.7184700018289917E9, 0.0, 2024-06-15 11:46:41.828
152.0, 35307.575500914514, 42012.83061657317, 63727.28213397052, -187500.02235174447, -44319.48594087195, -187500.02235174447, -138868.6837397437, 83852.34580663989, -0.14200000000000002, 0.922, 0.342, 192.0, 0.0, 0.0, 0.0, 0.0, 0.0, 0.0, 0.0, 0.0, 0.0, 1.7184700018290005E9, 0.0, 2024-06-15 11:46:41.829
153.0, 35400.33524040404, 42424.43799071765, 65654.91892754065, -187500.02235174447, -43735.1219338324, -187500.02235174447, -138573.81952688927, 84441.04605210377, -0.14200000000000002, 0.922, 0.342, 192.0, 0.0, 0.0, 0.0, 0.0, 0.0, 0.0, 0.0, 0.0, 0.0, 1.7184700018290112E9, 0.0, 2024-06-15 11:46:41.829
154.0, 35359.878582939935, 42221.95353769702, 66372.07464838919, -187500.02235174447, -43692.161880989304, -187500.02235174447, -138516.8449302727, 84676.32051424033, -0.14200000000000002, 0.922, 0.342, 192.0, 0.0, 0.0, 0.0, 0.0, 0.0, 0.0, 0.0, 0.0, 0.0, 1.71847000182902E9, 0.0, 2024-06-15 11:46:41.829
155.0, 35262.492032348164, 41814.21301534331, 64539.455120498555, -187500.02235174447, -43973.14566053697, -187500.02235174447, -138788.0609974934, 83815.80070445547, -0.14200000000000002, 0.922, 0.342, 192.0, 0.0, 0.0, 0.0, 0.0, 0.0, 0.0, 0.0, 0.0, 0.0, 1.7184700018290288E9, 0.0, 2024-06-15 11:46:41.829
156.0, 35286.49780589316, 41949.48577278683, 63613.98114132657, -187500.02235174447, -44389.24573531697, -187500.02235174447, -138879.05494917094, 83815.97951841111, -0.14200000000000002, 0.922, 0.342, 192.0, 0.0, 0.0, 0.0, 0.0, 0.0, 0.0, 0.0, 0.0, 0.0, 1.718470001829038E9, 0.0, 2024-06-15 11:46:41.829
157.0, 35394.210862423286, 42372.91721974817, 65257.46020763639, -187500.02235174447, -43825.60179538748, -187500.02235174447, -138623.55215830234, 84257.67234059243, -0.14200000000000002, 0.922, 0.342, 192.0, 0.0, 0.0, 0.0, 0.0, 0.0, 0.0, 0.0, 0.0, 0.0, 1.718470001829047E9, 0.0, 2024-06-15 11:46:41.829
158.0, 35377.62586803745, 42311.65108819617, 66515.57284779225, -187500.02235174447, -43684.69639834123, -187500.02235174447, -138459.80327842277, 84792.30371621891, -0.14200000000000002, 0.922, 0.342, 192.0, 0.0, 0.0, 0.0, 0.0, 0.0, 0.0, 0.0, 0.0, 0.0, 1.7184700018290558E9, 0.0, 2024-06-15 11:46:41.829
159.0, 35269.26461091812, 41834.48604756428, 64903.5203341866, -187500.02235174447, -43867.556019730095, -187500.02235174447, -138717.96592688156, 83901.31847874146, -0.14200000000000002, 0.922, 0.342, 192.0, 0.0, 0.0, 0.0, 0.0, 0.0, 0.0, 0.0, 0.0, 0.0, 1.7184700018290646E9, 0.0, 2024-06-15 11:46:41.829
160.0, 35271.18686094128, 41892.66763838144, 63612.52827793697, -187500.02235174447, -44390.11745335072, -187500.02235174447, -138866.1803443647, 83805.47419851711, -0.14200000000000002, 0.922, 0.342, 192.0, 0.0, 0.0, 0.0, 0.0, 0.0, 0.0, 0.0, 0.0, 0.0, 1.7184700018290737E9, 0.0, 2024-06-15 11:46:41.829
161.0, 35368.30519059959, 42287.37709371771, 64886.063621767, -187500.02235174447, -43891.31592408609, -187500.02235174447, -138645.34510914626, 84128.56866461858, -0.14200000000000002, 0.922, 0.342, 192.0, 0.0, 0.0, 0.0, 0.0, 0.0, 0.0, 0.0, 0.0, 0.0, 1.7184700018290823E9, 0.0, 2024-06-15 11:46:41.829
162.0, 35391.103969944, 42382.79669079741, 66564.54551989383, -187500.02235174447, -43651.63816829183, -187500.02235174447, -138408.23780396435, 84857.03436816149, -0.14, 0.926, 0.334, 192.0, 251.0, 160.0, 28.0, 240.0, 10.0, 112.0, 0.0, 0.0, 0.0, 1.7184700018290913E9, 0.0, 2024-06-15 11:46:41.829
163.0, 35305.11680902443, 41906.79394087719, 65290.920769085984, -187500.02235174447, -43781.52415532162, -187500.02235174447, -138641.65707131114, 84050.85164914747, -0.14, 0.926, 0.334, 192.0, 0.0, 0.0, 0.0, 0.0, 0.0, 0.0, 0.0, 0.0, 0.0, 1.7184700018291004E9, 0.0, 2024-06-15 11:46:41.829
164.0, 35274.539622609576, 41870.47235613732, 63699.11893595683, -187500.02235174447, -44351.046604042844, -187500.02235174447, -138839.60412020734, 83801.96497463762, -0.14, 0.926, 0.334, 192.0, 0.0, 0.0, 0.0, 0.0, 0.0, 0.0, 0.0, 0.0, 0.0, 1.7184700018291092E9, 0.0, 2024-06-15 11:46:41.829
165.0, 35368.08167315503, 42230.02251744539, 64510.33079747329, -187500.02235174447, -44016.396286057985, -187500.02235174447, -138690.02624631242, 84007.15398873735, -0.14, 0.926, 0.334, 192.0, 0.0, 0.0, 0.0, 0.0, 0.0, 0.0, 0.0, 0.0, 0.0, 1.718470001829118E9, 0.0, 2024-06-15 11:46:41.829
166.0, 35409.499455630714, 42448.041432862454, 66469.46119898095, -187500.02235174447, -43671.24064817913, -187500.02235174447, -138408.5283766423, 84815.30366126343, -0.14, 0.926, 0.334, 192.0, 0.0, 0.0, 0.0, 0.0, 0.0, 0.0, 0.0, 0.0, 0.0, 1.7184700018291268E9, 0.0, 2024-06-15 11:46:41.829
167.0, 35319.265463264644, 41976.240810899835, 65659.72455259855, -187500.02235174447, -43737.401811766846, -187500.02235174447, -138566.30934075228, 84220.18846514088, -0.14, 0.926, 0.334, 192.0, 0.0, 0.0, 0.0, 0.0, 0.0, 0.0, 0.0, 0.0, 0.0, 1.7184700018291357E9, 0.0, 2024-06-15 11:46:41.829
168.0, 35258.379311368386, 41827.57935852759, 63841.61130685941, -187500.02235174447, -44287.9029259566, -187500.02235174447, -138811.44092219364, 83782.11662556132, -0.14, 0.926, 0.334, 192.0, 0.0, 0.0, 0.0, 0.0, 0.0, 0.0, 0.0, 0.0, 0.0, 1.7184700018291445E9, 0.0, 2024-06-15 11:46:41.829
169.0, 35337.48213499572, 42135.58639712172, 64185.8505232156, -187500.02235174447, -44135.39697353804, -187500.02235174447, -138708.71230467706, 83937.57300824797, -0.14, 0.926, 0.334, 192.0, 0.0, 0.0, 0.0, 0.0, 0.0, 0.0, 0.0, 0.0, 0.0, 1.7184700018291535E9, 0.0, 2024-06-15 11:46:41.829
170.0, 35408.538330619136, 42459.172601601196, 66297.44217365292, -187500.02235174447, -43642.518656554064, -187500.02235174447, -138366.3059313662, 84753.76930877798, -0.14, 0.926, 0.334, 192.0, 0.0, 0.0, 0.0, 0.0, 0.0, 0.0, 0.0, 0.0, 0.0, 1.7184700018291628E9, 0.0, 2024-06-15 11:46:41.829
171.0, 35335.068146594545, 42055.61185546063, 66010.60223705796, -187500.02235174447, -43667.15027894382, -187500.02235174447, -138450.70611842946, 84425.51158970733, -0.14, 0.926, 0.334, 192.0, 0.0, 0.0, 0.0, 0.0, 0.0, 0.0, 0.0, 0.0, 0.0, 1.7184700018291717E9, 0.0, 2024-06-15 11:46:41.829
172.0, 35267.14119519487, 41812.00019264224, 64024.24741080373, -187500.02235174447, -44199.926459780516, -187500.02235174447, -138784.28355268046, 83735.20031394962, -0.15, 0.92, 0.336, 192.0, 251.0, 80.0, 28.0, 192.0, 10.0, 128.0, 0.0, 0.0, 0.0, 1.7184700018291805E9, 0.0, 2024-06-15 11:46:41.829
173.0, 35320.5395126986, 42062.47384100841, 63893.445002251276, -187500.02235174447, -44264.14302160061, -187500.02235174447, -138744.0504126609, 83851.65290256178, -0.15, 0.92, 0.336, 192.0, 0.0, 0.0, 0.0, 0.0, 0.0, 0.0, 0.0, 0.0, 0.0, 1.7184700018291893E9, 0.0, 2024-06-15 11:46:41.829
174.0, 35409.25358644171, 42453.45055502064, 65959.05911434403, -187500.02235174447, -43705.05883754001, -187500.02235174447, -138418.02786803577, 84557.49864071592, -0.15, 0.92, 0.336, 192.0, 0.0, 0.0, 0.0, 0.0, 0.0, 0.0, 0.0, 0.0, 0.0, 1.7184700018291996E9, 0.0, 2024-06-15 11:46:41.829
175.0, 35356.458766038275, 42153.89247583062, 66263.33341161412, -187500.02235174447, -43677.54384011553, -187500.02235174447, -138403.90156554003, 84569.36741702168, -0.15, 0.92, 0.336, 192.0, 0.0, 0.0, 0.0, 0.0, 0.0, 0.0, 0.0, 0.0, 0.0, 1.7184700018292086E9, 0.0, 2024-06-15 11:46:41.829
176.0, 35261.799128270046, 41803.10419834903, 64341.93275474701, -187500.02235174447, -44037.18340840142, -187500.02235174447, -138682.80663285335, 83787.65985818623, -0.15, 0.92, 0.336, 192.0, 0.0, 0.0, 0.0, 0.0, 0.0, 0.0, 0.0, 0.0, 0.0, 1.7184700018292177E9, 0.0, 2024-06-15 11:46:41.829
177.0, 35301.451122933766, 41991.328238407164, 63736.84868059739, -187500.02235174447, -44319.75416180542, -187500.02235174447, -138724.2914705624, 83838.10774542186, -0.15, 0.92, 0.336, 192.0, 0.0, 0.0, 0.0, 0.0, 0.0, 0.0, 0.0, 0.0, 0.0, 1.7184700018292265E9, 0.0, 2024-06-15 11:46:41.829
178.0, 35393.27208915616, 42406.08720851984, 65602.97347342652, -187500.02235174447, -43738.25117805615, -187500.02235174447, -138432.66826065403, 84384.69730433194, -0.15, 0.92, 0.336, 192.0, 0.0, 0.0, 0.0, 0.0, 0.0, 0.0, 0.0, 0.0, 0.0, 1.7184700018292356E9, 0.0, 2024-06-15 11:46:41.829
179.0, 35365.08653939802, 42243.81354377432, 66452.11624528364, -187500.02235174447, -43672.26882842408, -187500.02235174447, -138347.73163172384, 84689.10571206876, -0.15, 0.92, 0.336, 192.0, 0.0, 0.0, 0.0, 0.0, 0.0, 0.0, 0.0, 0.0, 0.0, 1.7184700018292444E9, 0.0, 2024-06-15 11:46:41.829
180.0, 35271.05275047455, 41825.63475675997, 64673.02914536347, -187500.02235174447, -43907.140959160446, -187500.02235174447, -138605.29078308234, 83826.37307958283, -0.15, 0.92, 0.336, 192.0, 0.0, 0.0, 0.0, 0.0, 0.0, 0.0, 0.0, 0.0, 0.0, 1.7184700018292532E9, 0.0, 2024-06-15 11:46:41.829
181.0, 35283.30150643605, 41936.7005749584, 63660.137493626775, -187500.02235174447, -44338.0155370254, -187500.02235174447, -138699.59279293928, 83814.07962013241, -0.15, 0.92, 0.336, 192.0, 0.0, 0.0, 0.0, 0.0, 0.0, 0.0, 0.0, 0.0, 0.0, 1.718470001829262E9, 0.0, 2024-06-15 11:46:41.829
182.0, 35388.354705376, 42355.46050732857, 65209.44866054638, -187500.02235174447, -43785.36865536793, -187500.02235174447, -138449.18619980649, 84210.1748836249, -0.148, 0.922, 0.336, 192.0, 251.0, 96.0, 28.0, 208.0, 10.0, 128.0, 0.0, 0.0, 0.0, 1.7184700018292708E9, 0.0, 2024-06-15 11:46:41.829
183.0, 35384.26433614067, 42333.46639078455, 66573.03918278684, -187500.02235174447, -43613.61785097335, -187500.02235174447, -138251.4403166104, 84803.27842274647, -0.148, 0.922, 0.336, 192.0, 0.0, 0.0, 0.0, 0.0, 0.0, 0.0, 0.0, 0.0, 0.0, 1.71847000182928E9, 0.0, 2024-06-15 11:46:41.829
184.0, 35283.36856166942, 41851.942759983875, 65016.88838206392, -187500.02235174447, -43794.71168455025, -187500.02235174447, -138523.3939913981, 83910.75091490161, -0.148, 0.922, 0.336, 192.0, 0.0, 0.0, 0.0, 0.0, 0.0, 0.0, 0.0, 0.0, 0.0, 1.718470001829289E9, 0.0, 2024-06-15 11:46:41.829
185.0, 35272.08093071949, 41886.85618482306, 63640.914993395214, -187500.02235174447, -44334.52866489037, -187500.02235174447, -138689.60156316776, 83773.1759277792, -0.148, 0.922, 0.336, 192.0, 0.0, 0.0, 0.0, 0.0, 0.0, 0.0, 0.0, 0.0, 0.0, 1.718470001829298E9, 0.0, 2024-06-15 11:46:41.829
186.0, 35376.173004647855, 42286.50537568395, 64791.51574272106, -187500.02235174447, -43877.6590082239, -187500.02235174447, -138482.75851997835, 84050.337559025, -0.148, 0.922, 0.336, 192.0, 0.0, 0.0, 0.0, 0.0, 0.0, 0.0, 0.0, 0.0, 0.0, 1.7184700018293068E9, 0.0, 2024-06-15 11:46:41.829
187.0, 35392.08744670003, 42404.29906896342, 66532.78369102284, -187500.02235174447, -43619.47400802065, -187500.02235174447, -138228.46272331034, 84793.9130418197, -0.148, 0.922, 0.336, 192.0, 0.0, 0.0, 0.0, 0.0, 0.0, 0.0, 0.0, 0.0, 0.0, 1.7184700022311733E9, 0.0, 2024-06-15 11:46:42.231
188.0, 35288.50946289414, 41908.24680426679, 65373.84574101517, -187500.02235174447, -43714.22305276669, -187500.02235174447, -138431.93065308698, 84037.90998910785, -0.148, 0.922, 0.336, 192.0, 0.0, 0.0, 0.0, 0.0, 0.0, 0.0, 0.0, 0.0, 0.0, 1.7184700022312934E9, 0.0, 2024-06-15 11:46:42.231
189.0, 35261.665017803316, 41849.37230937151, 63716.12861348732, -187500.02235174447, -44287.634705023134, -187500.02235174447, -138653.4140888946, 83736.60847385031, -0.148, 0.922, 0.336, 192.0, 0.0, 0.0, 0.0, 0.0, 0.0, 0.0, 0.0, 0.0, 0.0, 1.718470002231306E9, 0.0, 2024-06-15 11:46:42.231
190.0, 35351.004940391176, 42193.8126914278, 64413.68185444854, -187500.02235174447, -43992.65873344645, -187500.02235174447, -138504.685581289, 83928.96758663269, -0.148, 0.922, 0.336, 192.0, 0.0, 0.0, 0.0, 0.0, 0.0, 0.0, 0.0, 0.0, 0.0, 1.7184700022313173E9, 0.0, 2024-06-15 11:46:42.231
191.0, 35394.121455445464, 42432.8645983773, 66402.18244817048, -187500.02235174447, -43628.21354010267, -187500.02235174447, -138212.5259295137, 84732.1998753786, -0.148, 0.922, 0.336, 192.0, 0.0, 0.0, 0.0, 0.0, 0.0, 0.0, 0.0, 0.0, 0.0, 1.718470002231344E9, 0.0, 2024-06-15 11:46:42.231
192.0, 35311.285890494095, 41981.24760165782, 65728.99260866555, -187500.02235174447, -43663.573999830965, -187500.02235174447, -138338.12038160805, 84213.63940401547, -0.148, 0.916, 0.334, 192.0, 251.0, 96.0, 28.0, 160.0, 10.0, 112.0, 0.0, 0.0, 0.0, 1.718470002231354E9, 0.0, 2024-06-15 11:46:42.231
193.0, 35253.3725206104, 41818.95158516784, 63880.36923174492, -187500.02235174447, -44190.181099198, -187500.02235174447, -138594.87487016618, 83730.6629098252, -0.148, 0.916, 0.334, 192.0, 0.0, 0.0, 0.0, 0.0, 0.0, 0.0, 0.0, 0.0, 0.0, 1.7184700022313633E9, 0.0, 2024-06-15 11:46:42.231
194.0, 35344.94761764379, 42131.294862186296, 64083.47953361029, -187500.02235174447, -44120.4660082419, -187500.02235174447, -138535.46393340398, 83845.70733853667, -0.148, 0.916, 0.334, 192.0, 0.0, 0.0, 0.0, 0.0, 0.0, 0.0, 0.0, 0.0, 0.0, 1.7184700022313728E9, 0.0, 2024-06-15 11:46:42.231
195.0, 35416.20497896731, 42470.415529062215, 66161.90119527593, -187500.02235174447, -43654.83446774894, -187500.02235174447, -138223.88061569698, 84605.01844942791, -0.148, 0.916, 0.334, 192.0, 0.0, 0.0, 0.0, 0.0, 0.0, 0.0, 0.0, 0.0, 0.0, 1.718470002231382E9, 0.0, 2024-06-15 11:46:42.231
196.0, 35340.1419925859, 42082.90333544056, 66018.7829755286, -187500.02235174447, -43676.917991270784, -187500.02235174447, -138291.49464267428, 84360.42330985348, -0.148, 0.916, 0.334, 192.0, 0.0, 0.0, 0.0, 0.0, 0.0, 0.0, 0.0, 0.0, 0.0, 1.7184700022313929E9, 0.0, 2024-06-15 11:46:42.231
197.0, 35244.49887806164, 41796.37632326798, 64126.05960679765, -187500.02235174447, -44067.6041326051, -187500.02235174447, -138526.9926222554, 83725.14202894474, -0.148, 0.916, 0.334, 192.0, 0.0, 0.0, 0.0, 0.0, 0.0, 0.0, 0.0, 0.0, 0.0, 1.7184700022314224E9, 0.0, 2024-06-15 11:46:42.231
198.0, 35315.2868527516, 42043.072526821205, 63876.54708344306, -187500.02235174447, -44181.50862234934, -187500.02235174447, -138504.30560163327, 83814.30313757696, -0.148, 0.916, 0.334, 192.0, 0.0, 0.0, 0.0, 0.0, 0.0, 0.0, 0.0, 0.0, 0.0, 1.718470002231432E9, 0.0, 2024-06-15 11:46:42.231
199.0, 35401.31871716007, 42434.09394432235, 65867.26049986607, -187500.02235174447, -43645.15616239979, -187500.02235174447, -138199.1148828405, 84448.42212777401, -0.148, 0.916, 0.334, 192.0, 0.0, 0.0, 0.0, 0.0, 0.0, 0.0, 0.0, 0.0, 0.0, 1.7184700022314415E9, 0.0, 2024-06-15 11:46:42.231
200.0, 35350.84847817999, 42165.96241783648, 66300.83963881012, -187500.02235174447, -43611.896766650294, -187500.02235174447, -138158.94879805433, 84532.73290785943, -0.148, 0.916, 0.334, 192.0, 0.0, 0.0, 0.0, 0.0, 0.0, 0.0, 0.0, 0.0, 0.0, 1.7184700022314513E9, 0.0, 2024-06-15 11:46:42.231
201.0, 35261.95559048124, 41800.86902390349, 64396.24749377341, -187500.02235174447, -43950.63745387047, -187500.02235174447, -138457.0316621103, 83711.28394738244, -0.148, 0.916, 0.334, 192.0, 0.0, 0.0, 0.0, 0.0, 0.0, 0.0, 0.0, 0.0, 0.0, 1.718470002231476E9, 0.0, 2024-06-15 11:46:42.231
202.0, 35297.85249207646, 41976.77725276676, 63686.55725557295, -187500.02235174447, -44278.0011031629, -187500.02235174447, -138521.8517210307, 83743.11283148681, -0.148, 0.916, 0.334, 192.0, 0.0, 0.0, 0.0, 0.0, 0.0, 0.0, 0.0, 0.0, 0.0, 1.7184700022314856E9, 0.0, 2024-06-15 11:46:42.231
203.0, 35392.1545019334, 42393.57023162487, 65449.260526807375, -187500.02235174447, -43741.6262914689, -187500.02235174447, -138265.67837782842, 84227.31867162212, -0.15, 0.92, 0.338, 192.0, 251.0, 80.0, 28.0, 192.0, 10.0, 144.0, 0.0, 0.0, 0.0, 1.7184700022314944E9, 0.0, 2024-06-15 11:46:42.231
204.0, 35348.85917292347, 42247.23336067598, 66433.83251831919, -187500.02235174447, -43648.754793257096, -187500.02235174447, -138134.38423089794, 84628.75600203944, -0.15, 0.92, 0.338, 192.0, 0.0, 0.0, 0.0, 0.0, 0.0, 0.0, 0.0, 0.0, 0.0, 1.7184700022315035E9, 0.0, 2024-06-15 11:46:42.231
205.0, 35253.64074154386, 41807.28397456217, 64718.73846277458, -187500.02235174447, -43848.84760962101, -187500.02235174447, -138385.7072455534, 83769.6220004108, -0.15, 0.92, 0.338, 192.0, 0.0, 0.0, 0.0, 0.0, 0.0, 0.0, 0.0, 0.0, 0.0, 1.7184700022315125E9, 0.0, 2024-06-15 11:46:42.231
206.0, 35258.222849157195, 41900.06606579615, 63628.77799615598, -187500.02235174447, -44297.96121096149, -187500.02235174447, -138488.25704911436, 83739.98358726306, -0.15, 0.92, 0.338, 192.0, 0.0, 0.0, 0.0, 0.0, 0.0, 0.0, 0.0, 0.0, 0.0, 1.7184700022315214E9, 0.0, 2024-06-15 11:46:42.231
207.0, 35365.80179522059, 42314.15448357516, 65089.375089332476, -187500.02235174447, -43757.16075386533, -187500.02235174447, -138225.48994129777, 84104.6970015403, -0.15, 0.92, 0.338, 192.0, 0.0, 0.0, 0.0, 0.0, 0.0, 0.0, 0.0, 0.0, 0.0, 1.718470002231531E9, 0.0, 2024-06-15 11:46:42.231
208.0, 35370.361551089474, 42330.33714656081, 66505.82748720974, -187500.02235174447, -43627.63239474683, -187500.02235174447, -138058.20948579424, 84692.25730803696, -0.15, 0.92, 0.338, 192.0, 0.0, 0.0, 0.0, 0.0, 0.0, 0.0, 0.0, 0.0, 0.0, 1.7184700022315395E9, 0.0, 2024-06-15 11:46:42.231
209.0, 35272.483262119684, 41851.47337335031, 65068.185635588845, -187500.02235174447, -43757.94306492127, -187500.02235174447, -138296.23321249883, 83849.21656241614, -0.15, 0.92, 0.338, 192.0, 0.0, 0.0, 0.0, 0.0, 0.0, 0.0, 0.0, 0.0, 0.0, 1.7184700022315493E9, 0.0, 2024-06-15 11:46:42.231
210.0, 35266.2247736722, 41871.724053826816, 63634.99178111456, -187500.02235174447, -44300.91164122959, -187500.02235174447, -138473.1472698626, 83687.41228430418, -0.15, 0.92, 0.338, 192.0, 0.0, 0.0, 0.0, 0.0, 0.0, 0.0, 0.0, 0.0, 0.0, 1.718470002231558E9, 0.0, 2024-06-15 11:46:42.231
211.0, 35365.108891142474, 42257.40340440314, 64645.111816538796, -187500.02235174447, -43925.02235472469, -187500.02235174447, -138316.1933202974, 83907.91224335578, -0.15, 0.92, 0.338, 192.0, 0.0, 0.0, 0.0, 0.0, 0.0, 0.0, 0.0, 0.0, 0.0, 1.718470002231567E9, 0.0, 2024-06-15 11:46:42.231
212.0, 35380.86687098347, 42397.9064700492, 66465.72845765692, -187500.02235174447, -43638.56239778548, -187500.02235174447, -138029.28632846908, 84691.65381093667, -0.15, 0.92, 0.338, 192.0, 0.0, 0.0, 0.0, 0.0, 0.0, 0.0, 0.0, 0.0, 0.0, 1.7184700022315767E9, 0.0, 2024-06-15 11:46:42.231
213.0, 35287.99537277167, 41913.946499102894, 65425.32180849574, -187500.02235174447, -43704.187119506256, -187500.02235174447, -138213.39764754745, 83993.60883159743, -0.146, 0.922, 0.34, 192.0, 251.0, 112.0, 28.0, 208.0, 10.0, 160.0, 0.0, 0.0, 0.0, 1.7184700022315855E9, 0.0, 2024-06-15 11:46:42.231
214.0, 35255.361825866916, 41836.207131887335, 63755.75825640658, -187500.02235174447, -44222.971108313934, -187500.02235174447, -138413.49046391135, 83684.73007496954, -0.146, 0.922, 0.34, 192.0, 0.0, 0.0, 0.0, 0.0, 0.0, 0.0, 0.0, 0.0, 0.0, 1.7184700022315943E9, 0.0, 2024-06-15 11:46:42.231
215.0, 35354.491812526205, 42175.752481907904, 64300.24675133786, -187500.02235174447, -44019.90550993747, -187500.02235174447, -138324.53052097923, 83808.91636716323, -0.146, 0.922, 0.34, 192.0, 0.0, 0.0, 0.0, 0.0, 0.0, 0.0, 0.0, 0.0, 0.0, 1.7184700022316031E9, 0.0, 2024-06-15 11:46:42.231
216.0, 35398.457693869794, 42439.43601124716, 66308.97567379185, -187500.02235174447, -43649.55945605749, -187500.02235174447, -138031.4320959368, 84598.60349876923, -0.146, 0.922, 0.34, 192.0, 0.0, 0.0, 0.0, 0.0, 0.0, 0.0, 0.0, 0.0, 0.0, 1.7184700022316127E9, 0.0, 2024-06-15 11:46:42.231
217.0, 35302.769875856626, 41989.49539536183, 65767.3258504064, -187500.02235174447, -43674.951037758714, -187500.02235174447, -138144.93425428084, 84145.80185959362, -0.146, 0.922, 0.34, 192.0, 0.0, 0.0, 0.0, 0.0, 0.0, 0.0, 0.0, 0.0, 0.0, 1.7184700022316215E9, 0.0, 2024-06-15 11:46:42.231
218.0, 35232.63010175587, 41790.967201109794, 63928.96192419076, -187500.02235174447, -44144.40472655353, -187500.02235174447, -138386.17663218698, 83647.73793789602, -0.146, 0.922, 0.34, 192.0, 0.0, 0.0, 0.0, 0.0, 0.0, 0.0, 0.0, 0.0, 0.0, 1.71847000223163E9, 0.0, 2024-06-15 11:46:42.231
219.0, 35323.311129011054, 42087.64190526508, 64008.981169340754, -187500.02235174447, -44133.05004037023, -187500.02235174447, -138347.01637590126, 83740.1176977298, -0.146, 0.922, 0.34, 192.0, 0.0, 0.0, 0.0, 0.0, 0.0, 0.0, 0.0, 0.0, 0.0, 1.7184700022316391E9, 0.0, 2024-06-15 11:46:42.231
220.0, 35393.38384787844, 42439.458362991616, 66071.48838895421, -187500.02235174447, -43650.073546179956, -187500.02235174447, -138021.26205220964, 84476.80884323225, -0.146, 0.922, 0.34, 192.0, 0.0, 0.0, 0.0, 0.0, 0.0, 0.0, 0.0, 0.0, 0.0, 1.718470002231648E9, 0.0, 2024-06-15 11:46:42.231
221.0, 35326.99916684618, 42082.94803892947, 66096.32117704405, -187500.02235174447, -43623.87730167834, -187500.02235174447, -138024.88303481138, 84345.00060617931, -0.146, 0.922, 0.34, 192.0, 0.0, 0.0, 0.0, 0.0, 0.0, 0.0, 0.0, 0.0, 0.0, 1.7184700022316573E9, 0.0, 2024-06-15 11:46:42.231
222.0, 35243.73891875016, 41784.99928534023, 64194.47829657535, -187500.02235174447, -44001.0853411061, -187500.02235174447, -138288.63361938403, 83660.7019496801, -0.146, 0.922, 0.34, 192.0, 0.0, 0.0, 0.0, 0.0, 0.0, 0.0, 0.0, 0.0, 0.0, 1.7184700022316663E9, 0.0, 2024-06-15 11:46:42.231
223.0, 35302.07697177851, 42009.96959328289, 63815.616228057894, -187500.02235174447, -44185.26371541783, -187500.02235174447, -138306.22444227035, 83725.07497371138, -0.148, 0.918, 0.336, 192.0, 251.0, 96.0, 28.0, 176.0, 10.0, 128.0, 0.0, 0.0, 0.0, 1.7184700022316759E9, 0.0, 2024-06-15 11:46:42.231
224.0, 35392.71329554478, 42416.8607493473, 65757.0216962125, -187500.02235174447, -43645.06675542197, -187500.02235174447, -137999.40204613234, 84323.87820766905, -0.148, 0.918, 0.336, 192.0, 0.0, 0.0, 0.0, 0.0, 0.0, 0.0, 0.0, 0.0, 0.0, 1.7184700022316847E9, 0.0, 2024-06-15 11:46:42.231
225.0, 35347.026329878136, 42180.06636858778, 66321.85027859811, -187500.02235174447, -43609.34866778239, -187500.02235174447, -137944.01442337208, 84474.4842618089, -0.148, 0.918, 0.336, 192.0, 0.0, 0.0, 0.0, 0.0, 0.0, 0.0, 0.0, 0.0, 0.0, 1.7184700022316935E9, 0.0, 2024-06-15 11:46:42.231
226.0, 35260.01098871362, 41802.47834950428, 64463.45918935051, -187500.02235174447, -43913.488854585754, -187500.02235174447, -138249.3392526316, 83629.90124582067, -0.148, 0.918, 0.336, 192.0, 0.0, 0.0, 0.0, 0.0, 0.0, 0.0, 0.0, 0.0, 0.0, 1.718470002231702E9, 0.0, 2024-06-15 11:46:42.231
227.0, 35285.64843960386, 41957.86767695757, 63657.9246709257, -187500.02235174447, -44278.850469452205, -187500.02235174447, -138332.66655596098, 83648.69906290759, -0.148, 0.918, 0.336, 192.0, 0.0, 0.0, 0.0, 0.0, 0.0, 0.0, 0.0, 0.0, 0.0, 1.7184700022317111E9, 0.0, 2024-06-15 11:46:42.231
228.0, 35385.02429545215, 42372.51488834797, 65354.01974368331, -187500.02235174447, -43727.76820990661, -187500.02235174447, -138053.336805503, 84112.38600163294, -0.148, 0.918, 0.336, 192.0, 0.0, 0.0, 0.0, 0.0, 0.0, 0.0, 0.0, 0.0, 0.0, 1.71847000223172E9, 0.0, 2024-06-15 11:46:42.231
229.0, 35368.3498940885, 42278.83872733578, 66432.98315202989, -187500.02235174447, -43650.02884269105, -187500.02235174447, -137926.2000830412, 84551.41896622408, -0.148, 0.918, 0.336, 192.0, 0.0, 0.0, 0.0, 0.0, 0.0, 0.0, 0.0, 0.0, 0.0, 1.718470002231729E9, 0.0, 2024-06-15 11:46:42.231
230.0, 35260.390968369364, 41822.19258811386, 64806.89374290631, -187500.02235174447, -43799.45025437477, -187500.02235174447, -138160.13344051046, 83715.10609568431, -0.148, 0.918, 0.336, 192.0, 0.0, 0.0, 0.0, 0.0, 0.0, 0.0, 0.0, 0.0, 0.0, 1.718470002231738E9, 0.0, 2024-06-15 11:46:42.231
231.0, 35262.916715492815, 41894.25461223777, 63644.6700864637, -187500.02235174447, -44251.11195458317, -187500.02235174447, -138269.45582264135, 83670.53671724042, -0.148, 0.918, 0.336, 192.0, 0.0, 0.0, 0.0, 0.0, 0.0, 0.0, 0.0, 0.0, 0.0, 1.718470002231747E9, 0.0, 2024-06-15 11:46:42.231
232.0, 35364.75126323119, 42294.2837827544, 64956.98570692369, -187500.02235174447, -43791.76125428215, -187500.02235174447, -138076.98495113672, 83946.53605777456, -0.148, 0.918, 0.336, 192.0, 0.0, 0.0, 0.0, 0.0, 0.0, 0.0, 0.0, 0.0, 0.0, 1.7184700022317555E9, 0.0, 2024-06-15 11:46:42.231
233.0, 35377.983495948734, 42353.13592590522, 66490.98592889142, -187500.02235174447, -43615.048362618494, -187500.02235174447, -137863.23521891062, 84599.20699586952, -0.146, 0.92, 0.334, 192.0, 251.0, 112.0, 28.0, 192.0, 10.0, 112.0, 0.0, 0.0, 0.0, 1.7184700022317643E9, 0.0, 2024-06-15 11:46:42.231
234.0, 35272.215041186224, 41863.051576978156, 65164.40989546894, -187500.02235174447, -43708.07632304148, -187500.02235174447, -138079.95773314926, 83803.46254151614, -0.146, 0.92, 0.334, 192.0, 0.0, 0.0, 0.0, 0.0, 0.0, 0.0, 0.0, 0.0, 0.0, 1.7184700022317731E9, 0.0, 2024-06-15 11:46:42.231
235.0, 35249.818593242, 41851.33926288358, 63707.389081405294, -187500.02235174447, -44199.926459780516, -187500.02235174447, -138222.47245579632, 83651.4930309645, -0.146, 0.92, 0.334, 192.0, 0.0, 0.0, 0.0, 0.0, 0.0, 0.0, 0.0, 0.0, 0.0, 1.7184700022317822E9, 0.0, 2024-06-15 11:46:42.231
236.0, 35352.10017586949, 42219.15956964011, 64600.855362517286, -187500.02235174447, -43851.261598022174, -187500.02235174447, -138068.4465847548, 83839.00181520007, -0.146, 0.92, 0.334, 192.0, 0.0, 0.0, 0.0, 0.0, 0.0, 0.0, 0.0, 0.0, 0.0, 1.7184700022317913E9, 0.0, 2024-06-15 11:46:42.231
237.0, 35378.475234326754, 42395.96186828159, 66432.02202701832, -187500.02235174447, -43593.61303968585, -187500.02235174447, -137818.777599189, 84582.13026310568, -0.146, 0.92, 0.334, 192.0, 0.0, 0.0, 0.0, 0.0, 0.0, 0.0, 0.0, 0.0, 0.0, 1.7184700022317998E9, 0.0, 2024-06-15 11:46:42.231
238.0, 35281.1780907128, 41914.72881015883, 65515.600504350725, -187500.02235174447, -43647.279578123045, -187500.02235174447, -137991.2660111506, 83946.17842986327, -0.146, 0.92, 0.334, 192.0, 0.0, 0.0, 0.0, 0.0, 0.0, 0.0, 0.0, 0.0, 0.0, 1.7184700022318087E9, 0.0, 2024-06-15 11:46:42.231
239.0, 35237.480430302676, 41804.199433827336, 63787.654195744304, -187500.02235174447, -44175.27248564631, -187500.02235174447, -138228.46272331034, 83585.08599818779, -0.146, 0.92, 0.334, 192.0, 0.0, 0.0, 0.0, 0.0, 0.0, 0.0, 0.0, 0.0, 0.0, 1.7184700022318175E9, 0.0, 2024-06-15 11:46:42.231
240.0, 35327.26738777964, 42128.32208017374, 64225.211945201394, -187500.02235174447, -44000.21362307234, -187500.02235174447, -138136.5076466212, 83720.49286609804, -0.146, 0.92, 0.334, 192.0, 0.0, 0.0, 0.0, 0.0, 0.0, 0.0, 0.0, 0.0, 0.0, 1.7184700022318263E9, 0.0, 2024-06-15 11:46:42.231
241.0, 35379.52576631615, 42413.10565627881, 66245.07203639412, -187500.02235174447, -43605.43711250271, -187500.02235174447, -137829.39467780528, 84500.25582316588, -0.146, 0.92, 0.334, 192.0, 0.0, 0.0, 0.0, 0.0, 0.0, 0.0, 0.0, 0.0, 0.0, 1.7184700022318351E9, 0.0, 2024-06-15 11:46:42.231
242.0, 35313.92339633982, 42003.19701471293, 65823.27226677803, -187500.02235174447, -43640.23877861963, -187500.02235174447, -137942.13687683785, 84111.42487662136, -0.146, 0.92, 0.334, 192.0, 0.0, 0.0, 0.0, 0.0, 0.0, 0.0, 0.0, 0.0, 0.0, 1.7184700022318442E9, 0.0, 2024-06-15 11:46:42.231
243.0, 35246.89051471836, 41790.3637040095, 63973.352488679, -187500.02235174447, -44082.49039441233, -187500.02235174447, -138192.25289729272, 83579.8780417297, -0.146, 0.92, 0.334, 192.0, 0.0, 0.0, 0.0, 0.0, 0.0, 0.0, 0.0, 0.0, 0.0, 1.718470002231853E9, 0.0, 2024-06-15 11:46:42.231
244.0, 35321.768858643634, 42062.80911717524, 63917.24961009617, -187500.02235174447, -44146.75165972134, -187500.02235174447, -138194.15279557143, 83644.94396983909, -0.14, 0.918, 0.336, 192.0, 251.0, 160.0, 28.0, 176.0, 10.0, 128.0, 0.0, 0.0, 0.0, 1.718470002231862E9, 0.0, 2024-06-15 11:46:42.231
245.0, 35380.46453958327, 42420.101752293325, 65970.90553890532, -187500.02235174447, -43633.53325528303, -187500.02235174447, -137855.7473845181, 84364.55838257771, -0.14, 0.918, 0.336, 192.0, 0.0, 0.0, 0.0, 0.0, 0.0, 0.0, 0.0, 0.0, 0.0, 1.718470002231871E9, 0.0, 2024-06-15 11:46:42.231
246.0, 35316.49384695219, 42087.23957386489, 66122.29390410113, -187500.02235174447, -43607.40406601478, -187500.02235174447, -137851.32173911593, 84293.21161427637, -0.14, 0.918, 0.336, 192.0, 0.0, 0.0, 0.0, 0.0, 0.0, 0.0, 0.0, 0.0, 0.0, 1.7184700022318797E9, 0.0, 2024-06-15 11:46:42.231
247.0, 35248.991578697154, 41781.73593064975, 64212.6055613286, -187500.02235174447, -43984.41093974244, -187500.02235174447, -138149.91869329437, 83553.68179722808, -0.14, 0.918, 0.336, 192.0, 0.0, 0.0, 0.0, 0.0, 0.0, 0.0, 0.0, 0.0, 0.0, 1.7184700022318883E9, 0.0, 2024-06-15 11:46:42.231
248.0, 35308.22370150372, 42000.06777048919, 63728.600886893386, -187500.02235174447, -44221.719410624435, -187500.02235174447, -138192.25289729272, 83609.49410313298, -0.14, 0.918, 0.336, 192.0, 0.0, 0.0, 0.0, 0.0, 0.0, 0.0, 0.0, 0.0, 0.0, 1.7184700022318976E9, 0.0, 2024-06-15 11:46:42.231
249.0, 35397.0048304802, 42404.81315908589, 65587.05903137435, -187500.02235174447, -43722.53790170406, -187500.02235174447, -137938.80646691401, 84146.5171154162, -0.14, 0.918, 0.336, 192.0, 0.0, 0.0, 0.0, 0.0, 0.0, 0.0, 0.0, 0.0, 0.0, 1.7184700022319064E9, 0.0, 2024-06-15 11:46:42.231
250.0, 35352.748376458694, 42200.04882813082, 66288.14384795951, -187500.02235174447, -43679.711959327695, -187500.02235174447, -137863.88341949982, 84395.33673469267, -0.14, 0.918, 0.336, 192.0, 0.0, 0.0, 0.0, 0.0, 0.0, 0.0, 0.0, 0.0, 0.0, 1.7184700022319152E9, 0.0, 2024-06-15 11:46:42.231
251.0, 35248.47748857469, 41787.83795688605, 64506.754518360445, -187500.02235174447, -43910.60547955102, -187500.02235174447, -138122.58250982553, 83589.39988486766, -0.14, 0.918, 0.336, 192.0, 0.0, 0.0, 0.0, 0.0, 0.0, 0.0, 0.0, 0.0, 0.0, 1.718470002231924E9, 0.0, 2024-06-15 11:46:42.231
252.0, 35273.198517942255, 41924.854150397085, 63620.507850707516, -187500.02235174447, -44290.18280389104, -187500.02235174447, -138205.10515035453, 83614.72441133553, -0.14, 0.918, 0.336, 192.0, 0.0, 0.0, 0.0, 0.0, 0.0, 0.0, 0.0, 0.0, 0.0, 1.7184700022319329E9, 0.0, 2024-06-15 11:46:42.231
253.0, 35371.38973133442, 42338.18260886462, 65240.942268483916, -187500.02235174447, -43745.157867092836, -187500.02235174447, -137937.9123971358, 84039.1840385418, -0.14, 0.918, 0.336, 192.0, 0.0, 0.0, 0.0, 0.0, 0.0, 0.0, 0.0, 0.0, 0.0, 1.7184700022319417E9, 0.0, 2024-06-15 11:46:42.231
254.0, 35354.42475729284, 42275.39655868967, 66447.3329719702, -187500.02235174447, -43631.67806049324, -187500.02235174447, -137775.0128835455, 84541.04775679682, -0.14400000000000002, 0.916, 0.334, 192.0, 251.0, 128.0, 28.0, 160.0, 10.0, 112.0, 0.0, 0.0, 0.0, 1.7184700022319505E9, 0.0, 2024-06-15 11:46:42.231
255.0, 35255.2724188891, 41812.20135834233, 64861.07437146597, -187500.02235174447, -43790.50955659265, -187500.02235174447, -138035.1201337719, 83676.03524637643, -0.14400000000000002, 0.916, 0.334, 192.0, 0.0, 0.0, 0.0, 0.0, 0.0, 0.0, 0.0, 0.0, 0.0, 1.7184700022319596E9, 0.0, 2024-06-15 11:46:42.231
0.0, 35252.74667176565, 41871.14290847098, 63607.20856275661, -187500.02235174447, -44282.87378345415, -187500.02235174447, -138177.0090075742, 83593.60201282526, -0.14400000000000002, 0.916, 0.334, 192.0, 0.0, 0.0, 0.0, 0.0, 0.0, 0.0, 0.0, 0.0, 0.0, 1.7184700022319684E9, 0.0, 2024-06-15 11:46:42.231
1.0, 35365.108891142474, 42277.36351220173, 64835.61573453138, -187500.02235174447, -43836.01770830366, -187500.02235174447, -137982.10179592393, 83860.57124859944, -0.14400000000000002, 0.916, 0.334, 192.0, 0.0, 0.0, 0.0, 0.0, 0.0, 0.0, 0.0, 0.0, 0.0, 1.7184700022319772E9, 0.0, 2024-06-15 11:46:42.231
2.0, 35362.270219596656, 42349.693757259105, 66456.20661451896, -187500.02235174447, -43638.27182510756, -187500.02235174447, -137750.60477860033, 84551.03898656834, -0.14400000000000002, 0.916, 0.334, 192.0, 0.0, 0.0, 0.0, 0.0, 0.0, 0.0, 0.0, 0.0, 0.0, 1.7184700022319868E9, 0.0, 2024-06-15 11:46:42.231
3.0, 35276.03718948808, 41868.14777471397, 65221.071567663144, -187500.02235174447, -43717.08407605697, -187500.02235174447, -137957.58193225646, 83782.22838428359, -0.14400000000000002, 0.916, 0.334, 192.0, 0.0, 0.0, 0.0, 0.0, 0.0, 0.0, 0.0, 0.0, 0.0, 1.7184700022320063E9, 0.0, 2024-06-15 11:46:42.232
4.0, 35250.24327638665, 41832.295576607656, 63644.491272508065, -187500.02235174447, -44283.63374276564, -187500.02235174447, -138184.18391754437, 83533.98991036296, -0.14400000000000002, 0.916, 0.334, 192.0, 0.0, 0.0, 0.0, 0.0, 0.0, 0.0, 0.0, 0.0, 0.0, 1.7184700022320156E9, 0.0, 2024-06-15 11:46:42.232
5.0, 35343.62886472093, 42192.40453152711, 64474.50095111143, -187500.02235174447, -43933.85129378454, -187500.02235174447, -138006.46519738022, 83745.68328209917, -0.14400000000000002, 0.916, 0.334, 192.0, 0.0, 0.0, 0.0, 0.0, 0.0, 0.0, 0.0, 0.0, 0.0, 1.718470002232025E9, 0.0, 2024-06-15 11:46:42.232
6.0, 35386.298344886105, 42403.33794395184, 66362.50810176232, -187500.02235174447, -43653.850990992905, -187500.02235174447, -137752.4152699012, 84497.28304115332, -0.14400000000000002, 0.916, 0.334, 192.0, 0.0, 0.0, 0.0, 0.0, 0.0, 0.0, 0.0, 0.0, 0.0, 1.7184700022320335E9, 0.0, 2024-06-15 11:46:42.232
7.0, 35291.81752107353, 41930.375031277545, 65547.65290589964, -187500.02235174447, -43716.52528244559, -187500.02235174447, -137927.54118770853, 83901.83256886395, -0.14400000000000002, 0.916, 0.334, 192.0, 0.0, 0.0, 0.0, 0.0, 0.0, 0.0, 0.0, 0.0, 0.0, 1.7184700022320423E9, 0.0, 2024-06-15 11:46:42.232
8.0, 35235.82640121298, 41792.28595403265, 63792.61628301338, -187500.02235174447, -44211.77288434182, -187500.02235174447, -138152.86912356247, 83519.6177386782, -0.15, 0.918, 0.332, 192.0, 251.0, 80.0, 28.0, 176.0, 10.0, 96.0, 0.0, 0.0, 0.0, 1.7184700022320511E9, 0.0, 2024-06-15 11:46:42.232
9.0, 35322.4394109773, 42107.71377178595, 64145.28210702922, -187500.02235174447, -44048.649853307, -187500.02235174447, -138040.7751251191, 83672.32485679685, -0.15, 0.918, 0.332, 192.0, 0.0, 0.0, 0.0, 0.0, 0.0, 0.0, 0.0, 0.0, 0.0, 1.71847000223206E9, 0.0, 2024-06-15 11:46:42.232
10.0, 35395.395504879416, 42428.14838029723, 66166.617413356, -187500.02235174447, -43652.375775858854, -187500.02235174447, -137757.73498508157, 84414.51453143531, -0.15, 0.918, 0.332, 192.0, 0.0, 0.0, 0.0, 0.0, 0.0, 0.0, 0.0, 0.0, 0.0, 1.718470002232069E9, 0.0, 2024-06-15 11:46:42.232
11.0, 35313.43165796181, 42019.0667532762, 65860.15264512929, -187500.02235174447, -43701.393151449345, -187500.02235174447, -137871.52771610353, 84079.81950996156, -0.15, 0.918, 0.332, 192.0, 0.0, 0.0, 0.0, 0.0, 0.0, 0.0, 0.0, 0.0, 0.0, 1.718470002232078E9, 0.0, 2024-06-15 11:46:42.232
12.0, 35224.69523247424, 41762.356968207, 64005.427241972364, -187500.02235174447, -44105.1103598011, -187500.02235174447, -138108.03152418512, 83521.27176776789, -0.15, 0.918, 0.332, 192.0, 0.0, 0.0, 0.0, 0.0, 0.0, 0.0, 0.0, 0.0, 0.0, 1.7184700022320871E9, 0.0, 2024-06-15 11:46:42.232
13.0, 35292.353962940455, 42016.719820108396, 63872.00967931863, -187500.02235174447, -44174.06549144572, -187500.02235174447, -138086.39503555238, 83610.52228337793, -0.15, 0.918, 0.332, 192.0, 0.0, 0.0, 0.0, 0.0, 0.0, 0.0, 0.0, 0.0, 0.0, 1.7184700022320964E9, 0.0, 2024-06-15 11:46:42.232
14.0, 35376.53063255914, 42401.281583461954, 65885.63363380833, -187500.02235174447, -43663.216371919676, -187500.02235174447, -137774.40938644522, 84279.01825654725, -0.15, 0.918, 0.332, 192.0, 0.0, 0.0, 0.0, 0.0, 0.0, 0.0, 0.0, 0.0, 0.0, 1.7184700022321055E9, 0.0, 2024-06-15 11:46:42.232
15.0, 35333.65998669386, 42113.65933581106, 66143.23748865575, -187500.02235174447, -43672.1570697018, -187500.02235174447, -137791.88845060926, 84253.7384335683, -0.15, 0.918, 0.332, 192.0, 0.0, 0.0, 0.0, 0.0, 0.0, 0.0, 0.0, 0.0, 0.0, 1.7184700022321143E9, 0.0, 2024-06-15 11:46:42.232
16.0, 35237.5698372805, 41764.99447405273, 64265.981527087875, -187500.02235174447, -44000.79476842818, -187500.02235174447, -138067.55251497656, 83505.73730537144, -0.15, 0.918, 0.332, 192.0, 0.0, 0.0, 0.0, 0.0, 0.0, 0.0, 0.0, 0.0, 0.0, 1.7184700022321231E9, 0.0, 2024-06-15 11:46:42.232
17.0, 35278.160605211335, 41953.799659466706, 63674.263796122534, -187500.02235174447, -44282.91848694307, -187500.02235174447, -138126.38230638293, 83546.30572155783, -0.15, 0.918, 0.332, 192.0, 0.0, 0.0, 0.0, 0.0, 0.0, 0.0, 0.0, 0.0, 0.0, 1.7184700022321322E9, 0.0, 2024-06-15 11:46:42.232
18.0, 35368.32754234404, 42361.71899577606, 65489.24779763792, -187500.02235174447, -43763.64275975737, -187500.02235174447, -137869.8960387583, 84054.51733523814, -0.148, 0.922, 0.328, 192.0, 251.0, 96.0, 28.0, 208.0, 10.0, 64.0, 0.0, 0.0, 0.0, 1.7184700022321408E9, 0.0, 2024-06-15 11:46:42.232
19.0, 35329.77078315864, 42184.693179690024, 66314.98829305032, -187500.02235174447, -43704.120064272895, -187500.02235174447, -137773.9623515561, 84365.98889422284, -0.148, 0.922, 0.328, 192.0, 0.0, 0.0, 0.0, 0.0, 0.0, 0.0, 0.0, 0.0, 0.0, 1.7184700022321498E9, 0.0, 2024-06-15 11:46:42.232
20.0, 35240.184991381764, 41768.97308456577, 64570.76991448044, -187500.02235174447, -43916.55104357613, -187500.02235174447, -138031.20857849225, 83538.39320402066, -0.148, 0.922, 0.328, 192.0, 0.0, 0.0, 0.0, 0.0, 0.0, 0.0, 0.0, 0.0, 0.0, 1.7184700022321587E9, 0.0, 2024-06-15 11:46:42.232
21.0, 35262.290866648065, 41894.723998871326, 63591.67410036017, -187500.02235174447, -44333.12050498969, -187500.02235174447, -138128.17044593935, 83537.05209935333, -0.148, 0.922, 0.328, 192.0, 0.0, 0.0, 0.0, 0.0, 0.0, 0.0, 0.0, 0.0, 0.0, 1.7184700022321672E9, 0.0, 2024-06-15 11:46:42.232
22.0, 35363.67837949734, 42311.20405330707, 65129.25060144074, -187500.02235174447, -43799.09262646349, -187500.02235174447, -137874.88047777183, 83922.03854585154, -0.148, 0.922, 0.328, 192.0, 0.0, 0.0, 0.0, 0.0, 0.0, 0.0, 0.0, 0.0, 0.0, 1.7184700022321768E9, 0.0, 2024-06-15 11:46:42.232
23.0, 35357.12931837193, 42289.18758501859, 66443.15319575706, -187500.02235174447, -43666.502078354606, -187500.02235174447, -137699.08400763082, 84470.34918908468, -0.148, 0.922, 0.328, 192.0, 0.0, 0.0, 0.0, 0.0, 0.0, 0.0, 0.0, 0.0, 0.0, 1.7184700022321856E9, 0.0, 2024-06-15 11:46:42.232
25.0, 35238.508610547615, 41836.45300107634, 63606.78387961196, -187500.02235174447, -44301.135158674144, -187500.02235174447, -138088.71961697575, 83524.80334339182, -0.148, 0.922, 0.328, 192.0, 0.0, 0.0, 0.0, 0.0, 0.0, 0.0, 0.0, 0.0, 0.0, 1.7184700022321947E9, 0.0, 2024-06-15 11:46:42.232
26.0, 35338.30914954056, 42224.94867145403, 64759.329230705414, -187500.02235174447, -43839.07989729403, -187500.02235174447, -137874.07581497144, 83796.60055596835, -0.148, 0.922, 0.328, 192.0, 0.0, 0.0, 0.0, 0.0, 0.0, 0.0, 0.0, 0.0, 0.0, 1.7184700022322035E9, 0.0, 2024-06-15 11:46:42.232
27.0, 35364.88537369792, 42344.28463510092, 66439.80043408876, -187500.02235174447, -43628.191188358214, -187500.02235174447, -137652.48062044152, 84489.16935791605, -0.148, 0.922, 0.328, 192.0, 0.0, 0.0, 0.0, 0.0, 0.0, 0.0, 0.0, 0.0, 0.0, 1.7184700022322123E9, 0.0, 2024-06-15 11:46:42.232
28.0, 35269.5775353405, 41860.749347299265, 65278.29203346873, -187500.02235174447, -43724.460151727224, -187500.02235174447, -137876.35569290587, 83736.47436338358, -0.148, 0.922, 0.328, 192.0, 0.0, 0.0, 0.0, 0.0, 0.0, 0.0, 0.0, 0.0, 0.0, 1.7184700022322214E9, 0.0, 2024-06-15 11:46:42.232
29.0, 35234.68646224576, 41801.76309368171, 63652.56025225643, -187500.02235174447, -44287.21002187848, -187500.02235174447, -138108.43385558532, 83451.4449180895, -0.15, 0.92, 0.336, 192.0, 251.0, 80.0, 28.0, 192.0, 10.0, 128.0, 0.0, 0.0, 0.0, 1.718470002698554E9, 0.0, 2024-06-15 11:46:42.698
30.0, 35334.308187283066, 42154.2501037419, 64355.27674618683, -187500.02235174447, -43997.57611722662, -187500.02235174447, -137967.72962423917, 83630.37063245424, -0.15, 0.92, 0.336, 192.0, 0.0, 0.0, 0.0, 0.0, 0.0, 0.0, 0.0, 0.0, 0.0, 1.7184700026987116E9, 0.0, 2024-06-15 11:46:42.698
31.0, 35384.86783324097, 42396.475958404066, 66302.0019295218, -187500.02235174447, -43663.909275997794, -187500.02235174447, -137688.33281854785, 84409.32892672169, -0.15, 0.92, 0.336, 192.0, 0.0, 0.0, 0.0, 0.0, 0.0, 0.0, 0.0, 0.0, 0.0, 1.7184700026987236E9, 0.0, 2024-06-15 11:46:42.698
32.0, 35294.589137385985, 41941.61795873856, 65634.71295055306, -187500.02235174447, -43685.79163381954, -187500.02235174447, -137812.16148283024, 83897.6974961397, -0.15, 0.92, 0.336, 192.0, 0.0, 0.0, 0.0, 0.0, 0.0, 0.0, 0.0, 0.0, 0.0, 1.7184700026987343E9, 0.0, 2024-06-15 11:46:42.698
33.0, 35227.042165642044, 41766.7602618647, 63833.58703059996, -187500.02235174447, -44181.70978804944, -187500.02235174447, -138053.76148864764, 83449.9920546999, -0.15, 0.92, 0.336, 192.0, 0.0, 0.0, 0.0, 0.0, 0.0, 0.0, 0.0, 0.0, 0.0, 1.718470002698761E9, 0.0, 2024-06-15 11:46:42.698
34.0, 35298.18776824329, 42056.774146172305, 64055.80807397462, -187500.02235174447, -44094.850909096116, -187500.02235174447, -137985.0745779365, 83568.7245212465, -0.15, 0.92, 0.336, 192.0, 0.0, 0.0, 0.0, 0.0, 0.0, 0.0, 0.0, 0.0, 0.0, 1.7184700026987708E9, 0.0, 2024-06-15 11:46:42.698
35.0, 35365.690036498316, 42385.00951349849, 66096.32117704405, -187500.02235174447, -43645.06675542197, -187500.02235174447, -137679.63798995473, 84314.02108836426, -0.15, 0.92, 0.336, 192.0, 0.0, 0.0, 0.0, 0.0, 0.0, 0.0, 0.0, 0.0, 0.0, 1.7184700026987798E9, 0.0, 2024-06-15 11:46:42.698
36.0, 35300.42294268882, 42007.71206709291, 65939.568393179, -187500.02235174447, -43658.678967795255, -187500.02235174447, -137745.01684248648, 84058.49594575119, -0.15, 0.92, 0.336, 192.0, 0.0, 0.0, 0.0, 0.0, 0.0, 0.0, 0.0, 0.0, 0.0, 1.7184700026987891E9, 0.0, 2024-06-15 11:46:42.698
37.0, 35235.0664419015, 41756.590218137535, 64034.14923359743, -187500.02235174447, -44105.84796736813, -187500.02235174447, -138042.29504374208, 83396.05729532926, -0.15, 0.92, 0.336, 192.0, 0.0, 0.0, 0.0, 0.0, 0.0, 0.0, 0.0, 0.0, 0.0, 1.718470002698798E9, 0.0, 2024-06-15 11:46:42.698
38.0, 35296.71255310924, 42001.811206556704, 63818.54430658154, -187500.02235174447, -44202.54161388178, -187500.02235174447, -138013.21542420573, 83506.65372689412, -0.15, 0.92, 0.336, 192.0, 0.0, 0.0, 0.0, 0.0, 0.0, 0.0, 0.0, 0.0, 0.0, 1.7184700026988072E9, 0.0, 2024-06-15 11:46:42.698
39.0, 35385.09135068552, 42391.96090602409, 65796.94191180967, -187500.02235174447, -43677.633247093356, -187500.02235174447, -137711.04219091442, 84150.20515325131, -0.148, 0.92, 0.33, 192.0, 251.0, 96.0, 28.0, 192.0, 10.0, 80.0, 0.0, 0.0, 0.0, 1.7184700026988163E9, 0.0, 2024-06-15 11:46:42.698
40.0, 35332.38593725991, 42119.4931411139, 66214.29368427917, -187500.02235174447, -43639.232950119134, -187500.02235174447, -137669.73616716103, 84234.47122984783, -0.148, 0.92, 0.33, 192.0, 0.0, 0.0, 0.0, 0.0, 0.0, 0.0, 0.0, 0.0, 0.0, 1.7184700026988251E9, 0.0, 2024-06-15 11:46:42.698
41.0, 35234.0159099121, 41753.48332565824, 64357.489568887904, -187500.02235174447, -43944.669538100905, -187500.02235174447, -137939.65583320332, 83452.78602275682, -0.148, 0.92, 0.33, 192.0, 0.0, 0.0, 0.0, 0.0, 0.0, 0.0, 0.0, 0.0, 0.0, 1.718470002698834E9, 0.0, 2024-06-15 11:46:42.698
42.0, 35265.46481436072, 41922.127237573535, 63661.90328143875, -187500.02235174447, -44276.05650139529, -187500.02235174447, -138017.30579344105, 83472.63437183313, -0.148, 0.92, 0.33, 192.0, 0.0, 0.0, 0.0, 0.0, 0.0, 0.0, 0.0, 0.0, 0.0, 1.7184700026988428E9, 0.0, 2024-06-15 11:46:42.698
43.0, 35364.88537369792, 42337.71322223106, 65416.85049734718, -187500.02235174447, -43736.910073388826, -187500.02235174447, -137756.3044734364, 83960.52824980358, -0.148, 0.92, 0.33, 192.0, 0.0, 0.0, 0.0, 0.0, 0.0, 0.0, 0.0, 0.0, 0.0, 1.7184700026988518E9, 0.0, 2024-06-15 11:46:42.698
44.0, 35337.05745185107, 42198.08187461876, 66357.72482844887, -187500.02235174447, -43659.46127885119, -187500.02235174447, -137642.51174241444, 84332.3048153287, -0.148, 0.92, 0.33, 192.0, 0.0, 0.0, 0.0, 0.0, 0.0, 0.0, 0.0, 0.0, 0.0, 1.7184700026988616E9, 0.0, 2024-06-15 11:46:42.698
45.0, 35242.084889660466, 41766.00030255321, 64641.22261300357, -187500.02235174447, -43875.13326110045, -187500.02235174447, -137913.9960305686, 83468.27578166436, -0.148, 0.92, 0.33, 192.0, 0.0, 0.0, 0.0, 0.0, 0.0, 0.0, 0.0, 0.0, 0.0, 1.718470002698871E9, 0.0, 2024-06-15 11:46:42.698
46.0, 35258.66988404631, 41872.908696282946, 63564.0026407245, -187500.02235174447, -44342.37412719418, -187500.02235174447, -138040.9315873303, 83431.21658935746, -0.148, 0.92, 0.33, 192.0, 0.0, 0.0, 0.0, 0.0, 0.0, 0.0, 0.0, 0.0, 0.0, 1.7184700026988797E9, 0.0, 2024-06-15 11:46:42.698
47.0, 35361.77848121864, 42283.86786983823, 65016.463698919266, -187500.02235174447, -43818.89627205089, -187500.02235174447, -137801.34323851386, 83793.29249778898, -0.148, 0.92, 0.33, 192.0, 0.0, 0.0, 0.0, 0.0, 0.0, 0.0, 0.0, 0.0, 0.0, 1.7184700026988883E9, 0.0, 2024-06-15 11:46:42.698
48.0, 35351.58608574702, 42280.24688723646, 66436.04534102028, -187500.02235174447, -43653.225142148156, -187500.02235174447, -137597.71884652603, 84407.80900809873, -0.148, 0.92, 0.33, 192.0, 0.0, 0.0, 0.0, 0.0, 0.0, 0.0, 0.0, 0.0, 0.0, 1.7184700026988971E9, 0.0, 2024-06-15 11:46:42.698
49.0, 35268.81757602902, 41819.13039912348, 64989.86512301745, -187500.02235174447, -43795.47164386173, -187500.02235174447, -137845.35382334638, 83560.02969265339, -0.14, 0.924, 0.334, 192.0, 251.0, 160.0, 28.0, 224.0, 10.0, 112.0, 0.0, 0.0, 0.0, 1.7184700026989062E9, 0.0, 2024-06-15 11:46:42.698
50.0, 35250.28797987557, 41831.91559695192, 63560.35930637828, -187500.02235174447, -44370.80554614133, -187500.02235174447, -138050.09580255699, 83386.11076904665, -0.14, 0.924, 0.334, 192.0, 0.0, 0.0, 0.0, 0.0, 0.0, 0.0, 0.0, 0.0, 0.0, 1.7184700026989152E9, 0.0, 2024-06-15 11:46:42.698
51.0, 35329.94959711428, 42195.176147839564, 64619.80964181539, -187500.02235174447, -43947.73172709128, -187500.02235174447, -137856.46264034064, 83647.58147568483, -0.14, 0.924, 0.334, 192.0, 0.0, 0.0, 0.0, 0.0, 0.0, 0.0, 0.0, 0.0, 0.0, 1.718470002698924E9, 0.0, 2024-06-15 11:46:42.698
52.0, 35367.34406558801, 42350.16314389266, 66410.98903548587, -187500.02235174447, -43673.74404355813, -187500.02235174447, -137588.21935513252, 84418.91782509301, -0.14, 0.924, 0.334, 192.0, 0.0, 0.0, 0.0, 0.0, 0.0, 0.0, 0.0, 0.0, 0.0, 1.7184700026989331E9, 0.0, 2024-06-15 11:46:42.698
53.0, 35274.83019528749, 41866.113765968534, 65362.8263309987, -187500.02235174447, -43740.3745937794, -187500.02235174447, -137770.3637206988, 83719.97877597557, -0.14, 0.924, 0.334, 192.0, 0.0, 0.0, 0.0, 0.0, 0.0, 0.0, 0.0, 0.0, 0.0, 1.7184700026989422E9, 0.0, 2024-06-15 11:46:42.698
54.0, 35242.91190420531, 41792.308305777115, 63686.445496850676, -187500.02235174447, -44300.28579238484, -187500.02235174447, -137998.26210716512, 83390.80463538226, -0.14, 0.924, 0.334, 192.0, 0.0, 0.0, 0.0, 0.0, 0.0, 0.0, 0.0, 0.0, 0.0, 1.7184700026989515E9, 0.0, 2024-06-15 11:46:42.698
55.0, 35327.513256968654, 42129.10439122968, 64306.28172234079, -187500.02235174447, -44022.9900506723, -187500.02235174447, -137845.8902652133, 83577.82168123982, -0.14, 0.924, 0.334, 192.0, 0.0, 0.0, 0.0, 0.0, 0.0, 0.0, 0.0, 0.0, 0.0, 1.7184700026989603E9, 0.0, 2024-06-15 11:46:42.698
56.0, 35388.466464098274, 42398.37585668276, 66266.55206281568, -187500.02235174447, -43693.72650310117, -187500.02235174447, -137597.04829419235, 84328.52737051576, -0.14, 0.924, 0.334, 192.0, 0.0, 0.0, 0.0, 0.0, 0.0, 0.0, 0.0, 0.0, 0.0, 1.718470002698969E9, 0.0, 2024-06-15 11:46:42.698
57.0, 35306.4355619473, 41960.46047931439, 65682.61273892078, -187500.02235174447, -43750.879913673394, -187500.02235174447, -137736.72434529357, 83845.77439377003, -0.14, 0.924, 0.334, 192.0, 0.0, 0.0, 0.0, 0.0, 0.0, 0.0, 0.0, 0.0, 0.0, 1.718470002698978E9, 0.0, 2024-06-15 11:46:42.698
58.0, 35231.9148459333, 41765.15093626391, 63848.763865085115, -187500.02235174447, -44240.673689922536, -187500.02235174447, -137972.0658626635, 83351.64437909656, -0.14, 0.924, 0.334, 192.0, 0.0, 0.0, 0.0, 0.0, 0.0, 0.0, 0.0, 0.0, 0.0, 1.7184700026989868E9, 0.0, 2024-06-15 11:46:42.698
59.0, 35312.068201550035, 42057.265884550325, 63978.0016515257, -187500.02235174447, -44195.52316612282, -187500.02235174447, -137907.2458037431, 83471.58383984373, -0.14400000000000002, 0.922, 0.336, 192.0, 251.0, 128.0, 28.0, 208.0, 10.0, 128.0, 0.0, 0.0, 0.0, 1.718470002698996E9, 0.0, 2024-06-15 11:46:42.698
60.0, 35400.223481681765, 42420.90641509371, 66025.35438839845, -187500.02235174447, -43738.94408213426, -187500.02235174447, -137619.40003864767, 84199.28958407517, -0.14400000000000002, 0.922, 0.336, 192.0, 0.0, 0.0, 0.0, 0.0, 0.0, 0.0, 0.0, 0.0, 0.0, 1.718470002699005E9, 0.0, 2024-06-15 11:46:42.699
61.0, 35332.29653028209, 42060.79746017426, 65978.7733529536, -187500.02235174447, -43773.79045174008, -187500.02235174447, -137687.0364173694, 84009.70208760526, -0.14400000000000002, 0.922, 0.336, 192.0, 0.0, 0.0, 0.0, 0.0, 0.0, 0.0, 0.0, 0.0, 0.0, 1.718470002699014E9, 0.0, 2024-06-15 11:46:42.699
62.0, 35230.618444754895, 41750.04115701213, 64061.552472299634, -187500.02235174447, -44188.527070108306, -187500.02235174447, -137956.6655107338, 83325.82811425067, -0.14400000000000002, 0.922, 0.336, 192.0, 0.0, 0.0, 0.0, 0.0, 0.0, 0.0, 0.0, 0.0, 0.0, 1.7184700026990228E9, 0.0, 2024-06-15 11:46:42.699
63.0, 35290.69993385076, 41983.28161040325, 63705.310369170955, -187500.02235174447, -44385.35653178174, -187500.02235174447, -137988.40498786033, 83387.07189405822, -0.14400000000000002, 0.922, 0.336, 192.0, 0.0, 0.0, 0.0, 0.0, 0.0, 0.0, 0.0, 0.0, 0.0, 1.7184700026990316E9, 0.0, 2024-06-15 11:46:42.699
64.0, 35367.27701035464, 42376.29233316092, 65718.28612307145, -187500.02235174447, -43782.75350126666, -187500.02235174447, -137639.40484993518, 84058.49594575119, -0.14400000000000002, 0.922, 0.336, 192.0, 0.0, 0.0, 0.0, 0.0, 0.0, 0.0, 0.0, 0.0, 0.0, 1.718470002699041E9, 0.0, 2024-06-15 11:46:42.699
65.0, 35326.86505637944, 42134.87114129915, 66262.08171392462, -187500.02235174447, -43733.64671869835, -187500.02235174447, -137578.00460791643, 84201.86003468753, -0.14400000000000002, 0.922, 0.336, 192.0, 0.0, 0.0, 0.0, 0.0, 0.0, 0.0, 0.0, 0.0, 0.0, 1.7184700026990497E9, 0.0, 2024-06-15 11:46:42.699
66.0, 35233.92650293428, 41751.53872389063, 64372.30877546177, -187500.02235174447, -44073.795565819215, -187500.02235174447, -137881.60835285287, 83343.30717841473, -0.14400000000000002, 0.922, 0.336, 192.0, 0.0, 0.0, 0.0, 0.0, 0.0, 0.0, 0.0, 0.0, 0.0, 1.7184700026990585E9, 0.0, 2024-06-15 11:46:42.699
67.0, 35277.33359066649, 41924.47417074134, 63580.98996651053, -187500.02235174447, -44458.446736150596, -187500.02235174447, -137975.44097607626, 83348.33632091718, -0.14400000000000002, 0.922, 0.336, 192.0, 0.0, 0.0, 0.0, 0.0, 0.0, 0.0, 0.0, 0.0, 0.0, 1.7184700026990676E9, 0.0, 2024-06-15 11:46:42.699
68.0, 35355.16236485987, 42330.873588427734, 65350.46581631492, -187500.02235174447, -43852.759164900686, -187500.02235174447, -137667.45628922657, 83864.03576899001, -0.14400000000000002, 0.922, 0.336, 192.0, 0.0, 0.0, 0.0, 0.0, 0.0, 0.0, 0.0, 0.0, 0.0, 1.7184700026990764E9, 0.0, 2024-06-15 11:46:42.699
69.0, 35324.89810286738, 42213.79515097084, 66427.55167812726, -187500.02235174447, -43738.161771078325, -187500.02235174447, -137516.82788334225, 84301.61587019157, -0.14400000000000002, 0.922, 0.336, 192.0, 0.0, 0.0, 0.0, 0.0, 0.0, 0.0, 0.0, 0.0, 0.0, 1.7184700026990852E9, 0.0, 2024-06-15 11:46:42.699
70.0, 35241.50374430463, 41771.342369478036, 64717.106785429336, -187500.02235174447, -43972.8774396035, -187500.02235174447, -137802.23730829207, 83395.69966741797, -0.15, 0.918, 0.336, 192.0, 251.0, 80.0, 28.0, 176.0, 10.0, 128.0, 0.0, 0.0, 0.0, 1.718470002699094E9, 0.0, 2024-06-15 11:46:42.699
71.0, 35261.64266605886, 41866.44904213537, 63534.43128281013, -187500.02235174447, -44488.778053376445, -187500.02235174447, -137947.45659201822, 83318.7649630028, -0.15, 0.918, 0.336, 192.0, 0.0, 0.0, 0.0, 0.0, 0.0, 0.0, 0.0, 0.0, 0.0, 1.7184700026991029E9, 0.0, 2024-06-15 11:46:42.699
72.0, 35348.45684152327, 42266.433509163086, 64950.079017887, -187500.02235174447, -43949.47516315879, -187500.02235174447, -137693.47371977256, 83679.34330455582, -0.15, 0.918, 0.336, 192.0, 0.0, 0.0, 0.0, 0.0, 0.0, 0.0, 0.0, 0.0, 0.0, 1.718470002699112E9, 0.0, 2024-06-15 11:46:42.699
73.0, 35366.47234755425, 42321.441152267595, 66475.943204873, -187500.02235174447, -43770.50474530515, -187500.02235174447, -137492.03979874132, 84323.31941405767, -0.15, 0.918, 0.336, 192.0, 0.0, 0.0, 0.0, 0.0, 0.0, 0.0, 0.0, 0.0, 0.0, 1.7184700026991205E9, 0.0, 2024-06-15 11:46:42.699
74.0, 35272.416206886315, 41845.90778898094, 65057.79207441713, -187500.02235174447, -43947.038823013165, -187500.02235174447, -137762.33944443936, 83461.0561682053, -0.15, 0.918, 0.336, 192.0, 0.0, 0.0, 0.0, 0.0, 0.0, 0.0, 0.0, 0.0, 0.0, 1.7184700026991293E9, 0.0, 2024-06-15 11:46:42.699
75.0, 35260.055692202535, 41853.552085584655, 63581.86168454429, -187500.02235174447, -44486.967562075566, -187500.02235174447, -137914.08543754643, 83292.14403535653, -0.15, 0.918, 0.336, 192.0, 0.0, 0.0, 0.0, 0.0, 0.0, 0.0, 0.0, 0.0, 0.0, 1.7184700026991384E9, 0.0, 2024-06-15 11:46:42.699
76.0, 35370.98739993422, 42243.567674585305, 64569.518216790944, -187500.02235174447, -44093.643914895525, -187500.02235174447, -137732.6116243138, 83531.33005277277, -0.15, 0.918, 0.336, 192.0, 0.0, 0.0, 0.0, 0.0, 0.0, 0.0, 0.0, 0.0, 0.0, 1.7184700026991796E9, 0.0, 2024-06-15 11:46:42.699
77.0, 35385.22546115225, 42401.549804395414, 66437.96759104343, -187500.02235174447, -43805.79814980008, -187500.02235174447, -137471.76676652036, 84306.06386733818, -0.15, 0.918, 0.336, 192.0, 0.0, 0.0, 0.0, 0.0, 0.0, 0.0, 0.0, 0.0, 0.0, 1.7184700026991987E9, 0.0, 2024-06-15 11:46:42.699
78.0, 35294.27621296361, 41922.66367944046, 65452.56858498676, -187500.02235174447, -43899.63077302346, -187500.02235174447, -137658.47088795554, 83625.31913820734, -0.15, 0.918, 0.336, 192.0, 0.0, 0.0, 0.0, 0.0, 0.0, 0.0, 0.0, 0.0, 0.0, 1.7184700026992333E9, 0.0, 2024-06-15 11:46:42.699
79.0, 35250.84677348695, 41818.97393691229, 63701.21999993563, -187500.02235174447, -44468.88500081122, -187500.02235174447, -137879.82021329645, 83256.69416865041, -0.15, 0.918, 0.336, 192.0, 0.0, 0.0, 0.0, 0.0, 0.0, 0.0, 0.0, 0.0, 0.0, 1.7184700026992524E9, 0.0, 2024-06-15 11:46:42.699
80.0, 35339.739661185704, 42153.53484791933, 64212.002064228305, -187500.02235174447, -44257.661015708574, -187500.02235174447, -137757.82439205938, 83423.97462415394, -0.148, 0.92, 0.34, 192.0, 251.0, 96.0, 28.0, 192.0, 10.0, 160.0, 0.0, 0.0, 0.0, 1.718470002699272E9, 0.0, 2024-06-15 11:46:42.699
81.0, 35388.466464098274, 42430.80823788742, 66260.02535343473, -187500.02235174447, -43860.291702782124, -187500.02235174447, -137471.83382175374, 84209.05729640214, -0.148, 0.92, 0.34, 192.0, 0.0, 0.0, 0.0, 0.0, 0.0, 0.0, 0.0, 0.0, 0.0, 1.7184700026992908E9, 0.0, 2024-06-15 11:46:42.699
82.0, 35309.967137571235, 41999.084293733154, 65773.71844932062, -187500.02235174447, -43932.4207821394, -187500.02235174447, -137606.19015767457, 83772.79594812346, -0.148, 0.92, 0.34, 192.0, 0.0, 0.0, 0.0, 0.0, 0.0, 0.0, 0.0, 0.0, 0.0, 1.7184700026993103E9, 0.0, 2024-06-15 11:46:42.699
83.0, 35237.54748553604, 41784.77576789568, 63876.994118332164, -187500.02235174447, -44438.41957311864, -187500.02235174447, -137856.21677115164, 83223.39006941201, -0.148, 0.92, 0.34, 192.0, 0.0, 0.0, 0.0, 0.0, 0.0, 0.0, 0.0, 0.0, 0.0, 1.7184700026993296E9, 0.0, 2024-06-15 11:46:42.699
84.0, 35304.96034681325, 42055.455393249445, 63894.87551389641, -187500.02235174447, -44459.16199197317, -187500.02235174447, -137817.39179103277, 83336.42284112249, -0.148, 0.92, 0.34, 192.0, 0.0, 0.0, 0.0, 0.0, 0.0, 0.0, 0.0, 0.0, 0.0, 1.7184700026993487E9, 0.0, 2024-06-15 11:46:42.699
85.0, 35383.70554252929, 42424.68385990666, 65992.09499264896, -187500.02235174447, -43945.56360787912, -187500.02235174447, -137505.8531768147, 84082.63582976292, -0.148, 0.92, 0.34, 192.0, 0.0, 0.0, 0.0, 0.0, 0.0, 0.0, 0.0, 0.0, 0.0, 1.7184700026993685E9, 0.0, 2024-06-15 11:46:42.699
86.0, 35336.07397509503, 42096.00145769137, 66081.47961872573, -187500.02235174447, -43960.338110964076, -187500.02235174447, -137538.35261325273, 83971.63706679786, -0.148, 0.92, 0.34, 192.0, 0.0, 0.0, 0.0, 0.0, 0.0, 0.0, 0.0, 0.0, 0.0, 1.7184700026993835E9, 0.0, 2024-06-15 11:46:42.699
87.0, 35257.86522124591, 41784.820471384584, 64123.98089456331, -187500.02235174447, -44393.24669757446, -187500.02235174447, -137831.6745557397, 83223.36771766756, -0.148, 0.92, 0.34, 192.0, 0.0, 0.0, 0.0, 0.0, 0.0, 0.0, 0.0, 0.0, 0.0, 1.7184700026993926E9, 0.0, 2024-06-15 11:46:42.699
88.0, 35312.761105628146, 42005.72276183638, 63657.74585697006, -187500.02235174447, -44652.66104372276, -187500.02235174447, -137884.6928935877, 83269.00997984529, -0.148, 0.92, 0.34, 192.0, 0.0, 0.0, 0.0, 0.0, 0.0, 0.0, 0.0, 0.0, 0.0, 1.7184700026994016E9, 0.0, 2024-06-15 11:46:42.699
89.0, 35392.310964144584, 42410.49050217754, 65622.06186319135, -187500.02235174447, -44089.732359615846, -187500.02235174447, -137593.31555286833, 83883.81706283297, -0.148, 0.92, 0.34, 192.0, 0.0, 0.0, 0.0, 0.0, 0.0, 0.0, 0.0, 0.0, 0.0, 1.7184700026994104E9, 0.0, 2024-06-15 11:46:42.699
90.0, 35334.576408216526, 42181.92156337757, 66294.78231606273, -187500.02235174447, -44038.345699113095, -187500.02235174447, -137520.7617903664, 84100.60663230499, -0.148, 0.916, 0.336, 192.0, 251.0, 96.0, 28.0, 160.0, 10.0, 128.0, 0.0, 0.0, 0.0, 1.7184700026994193E9, 0.0, 2024-06-15 11:46:42.699
91.0, 35238.95564543673, 41782.093558561035, 64405.67992993355, -187500.02235174447, -44376.840517144265, -187500.02235174447, -137829.75230571657, 83213.8458745296, -0.148, 0.916, 0.336, 192.0, 0.0, 0.0, 0.0, 0.0, 0.0, 0.0, 0.0, 0.0, 0.0, 1.718470002699428E9, 0.0, 2024-06-15 11:46:42.699
92.0, 35284.03911400308, 41947.429412296944, 63525.13295711672, -187500.02235174447, -44796.69568499276, -187500.02235174447, -137924.1660742958, 83218.8973687765, -0.148, 0.916, 0.336, 192.0, 0.0, 0.0, 0.0, 0.0, 0.0, 0.0, 0.0, 0.0, 0.0, 1.7184700026994374E9, 0.0, 2024-06-15 11:46:42.699
93.0, 35378.274068626655, 42362.9483417211, 65268.39021067503, -187500.02235174447, -44184.12377645061, -187500.02235174447, -137612.96273624455, 83728.7630115465, -0.148, 0.916, 0.336, 192.0, 0.0, 0.0, 0.0, 0.0, 0.0, 0.0, 0.0, 0.0, 0.0, 1.7184700026994462E9, 0.0, 2024-06-15 11:46:42.699
94.0, 35356.034082893624, 42280.98449480349, 66475.07148683924, -187500.02235174447, -44049.90155099649, -187500.02235174447, -137444.6541004961, 84233.44304960288, -0.148, 0.916, 0.336, 192.0, 0.0, 0.0, 0.0, 0.0, 0.0, 0.0, 0.0, 0.0, 0.0, 1.718470002699455E9, 0.0, 2024-06-15 11:46:42.699
95.0, 35263.542564337564, 41825.9700329268, 64819.231905845634, -187500.02235174447, -44257.54925698629, -187500.02235174447, -137702.6602867437, 83339.93206500198, -0.148, 0.916, 0.336, 192.0, 0.0, 0.0, 0.0, 0.0, 0.0, 0.0, 0.0, 0.0, 0.0, 1.718470002699464E9, 0.0, 2024-06-15 11:46:42.699
96.0, 35263.11788119291, 41893.49465292629, 63562.63918431273, -187500.02235174447, -44779.753062695636, -187500.02235174447, -137834.04384065198, 83256.69416865041, -0.148, 0.916, 0.336, 192.0, 0.0, 0.0, 0.0, 0.0, 0.0, 0.0, 0.0, 0.0, 0.0, 1.718470002699473E9, 0.0, 2024-06-15 11:46:42.699
97.0, 35366.91938244335, 42294.21672752103, 64897.261845739115, -187500.02235174447, -44272.92725717155, -187500.02235174447, -137604.24555590696, 83590.74098953498, -0.148, 0.916, 0.336, 192.0, 0.0, 0.0, 0.0, 0.0, 0.0, 0.0, 0.0, 0.0, 0.0, 1.7184700026994815E9, 0.0, 2024-06-15 11:46:42.699
98.0, 35379.63752503843, 42367.57515282335, 66509.11319364468, -187500.02235174447, -44089.307676471195, -187500.02235174447, -137411.26059427985, 84264.78019532922, -0.148, 0.916, 0.336, 192.0, 0.0, 0.0, 0.0, 0.0, 0.0, 0.0, 0.0, 0.0, 0.0, 1.7184700026994903E9, 0.0, 2024-06-15 11:46:42.699
99.0, 35293.13627399639, 41889.04665577968, 65188.30391029167, -187500.02235174447, -44224.75924787036, -187500.02235174447, -137638.06374526783, 83452.20487740099, -0.148, 0.916, 0.336, 192.0, 0.0, 0.0, 0.0, 0.0, 0.0, 0.0, 0.0, 0.0, 0.0, 1.7184700026994991E9, 0.0, 2024-06-15 11:46:42.699
100.0, 35254.959494466726, 41849.70758553834, 63601.08418477586, -187500.02235174447, -44824.30008939506, -187500.02235174447, -137845.35382334638, 83203.00527846877, -0.15, 0.91, 0.332, 192.0, 251.0, 80.0, 28.0, 112.0, 10.0, 96.0, 0.0, 0.0, 0.0, 1.718470002699508E9, 0.0, 2024-06-15 11:46:42.699
101.0, 35362.76195797467, 42230.156627912125, 64495.01985252141, -187500.02235174447, -44467.49919265499, -187500.02235174447, -137679.66034169917, 83428.86965618965, -0.15, 0.91, 0.332, 192.0, 0.0, 0.0, 0.0, 0.0, 0.0, 0.0, 0.0, 0.0, 0.0, 1.7184700026995168E9, 0.0, 2024-06-15 11:46:42.699
102.0, 35401.22931018225, 42436.32911876788, 66443.89080332409, -187500.02235174447, -44129.04907811274, -187500.02235174447, -137392.57453591522, 84242.22728517381, -0.15, 0.91, 0.332, 192.0, 0.0, 0.0, 0.0, 0.0, 0.0, 0.0, 0.0, 0.0, 0.0, 1.7184700026995256E9, 0.0, 2024-06-15 11:46:42.699
103.0, 35298.143064754375, 41949.172848364455, 65537.12523426118, -187500.02235174447, -44243.08767832371, -187500.02235174447, -137595.03663719137, 83587.70115228905, -0.15, 0.91, 0.332, 192.0, 0.0, 0.0, 0.0, 0.0, 0.0, 0.0, 0.0, 0.0, 0.0, 1.7184700026995347E9, 0.0, 2024-06-15 11:46:42.699
104.0, 35256.68057878978, 41833.16729464141, 63741.85547135538, -187500.02235174447, -44800.18255712778, -187500.02235174447, -137819.89518641177, 83184.72155150432, -0.15, 0.91, 0.332, 192.0, 0.0, 0.0, 0.0, 0.0, 0.0, 0.0, 0.0, 0.0, 0.0, 1.7184700026995432E9, 0.0, 2024-06-15 11:46:42.699
105.0, 35347.20514383377, 42163.83900211323, 64164.28108981623, -187500.02235174447, -44631.605700445856, -187500.02235174447, -137711.511577548, 83347.03991973876, -0.15, 0.91, 0.332, 192.0, 0.0, 0.0, 0.0, 0.0, 0.0, 0.0, 0.0, 0.0, 0.0, 1.7184700026995523E9, 0.0, 2024-06-15 11:46:42.699
106.0, 35423.290481959644, 42480.25029662255, 66273.10112394109, -187500.02235174447, -44175.384244368586, -187500.02235174447, -137394.25091674936, 84161.04574931214, -0.15, 0.91, 0.332, 192.0, 0.0, 0.0, 0.0, 0.0, 0.0, 0.0, 0.0, 0.0, 0.0, 1.718470002699561E9, 0.0, 2024-06-15 11:46:42.699
107.0, 35340.94665538629, 42063.65848346454, 65931.63352389736, -187500.02235174447, -44200.932288281, -187500.02235174447, -137476.25946715588, 83812.40323929826, -0.15, 0.91, 0.332, 192.0, 0.0, 0.0, 0.0, 0.0, 0.0, 0.0, 0.0, 0.0, 0.0, 1.7184700026995697E9, 0.0, 2024-06-15 11:46:42.699
108.0, 35269.64459057386, 41831.71443125182, 63993.98314881125, -187500.02235174447, -44701.0525704685, -187500.02235174447, -137743.31810990788, 83194.48926383129, -0.15, 0.91, 0.332, 192.0, 0.0, 0.0, 0.0, 0.0, 0.0, 0.0, 0.0, 0.0, 0.0, 1.7184700026995785E9, 0.0, 2024-06-15 11:46:42.699
109.0, 35347.0933851115, 42107.110274685656, 63914.209772850256, -187500.02235174447, -44778.277847561585, -187500.02235174447, -137726.59900505532, 83286.53374749825, -0.15, 0.91, 0.332, 192.0, 0.0, 0.0, 0.0, 0.0, 0.0, 0.0, 0.0, 0.0, 0.0, 1.7184700026995873E9, 0.0, 2024-06-15 11:46:42.699
110.0, 35436.18743851035, 42486.575840303405, 66017.64303656138, -187500.02235174447, -44225.22863450392, -187500.02235174447, -137397.26840225083, 84017.72636386471, -0.15, 0.91, 0.332, 192.0, 0.0, 0.0, 0.0, 0.0, 0.0, 0.0, 0.0, 0.0, 0.0, 1.7184700026995964E9, 0.0, 2024-06-15 11:46:42.699
111.0, 35393.495606600714, 42184.87199364567, 66195.56292242563, -187500.02235174447, -44284.28194335484, -187500.02235174447, -137465.21770539496, 83933.54969424602, -0.148, 0.918, 0.332, 192.0, 251.0, 96.0, 28.0, 176.0, 10.0, 96.0, 0.0, 0.0, 0.0, 1.718470002699605E9, 0.0, 2024-06-15 11:46:42.699
112.0, 35286.0284192596, 41833.99430918626, 64218.774642798264, -187500.02235174447, -44724.54425389102, -187500.02235174447, -137783.88652609428, 83136.44178348086, -0.148, 0.918, 0.332, 192.0, 0.0, 0.0, 0.0, 0.0, 0.0, 0.0, 0.0, 0.0, 0.0, 1.718470002699614E9, 0.0, 2024-06-15 11:46:42.699
113.0, 35328.47438198023, 42034.422401717, 63689.574741074415, -187500.02235174447, -44984.18211748387, -187500.02235174447, -137804.00309610405, 83219.12088622105, -0.148, 0.918, 0.332, 192.0, 0.0, 0.0, 0.0, 0.0, 0.0, 0.0, 0.0, 0.0, 0.0, 1.7184700026996229E9, 0.0, 2024-06-15 11:46:42.699
114.0, 35418.48485690175, 42448.77904042948, 65634.66824706415, -187500.02235174447, -44384.55186898135, -187500.02235174447, -137489.73756906242, 83826.59659702738, -0.148, 0.918, 0.332, 192.0, 0.0, 0.0, 0.0, 0.0, 0.0, 0.0, 0.0, 0.0, 0.0, 1.7184700026996317E9, 0.0, 2024-06-15 11:46:42.699
115.0, 35373.28962961312, 42251.63665433367, 66416.86754427761, -187500.02235174447, -44327.15258922012, -187500.02235174447, -137406.29850701077, 84104.4511323513, -0.148, 0.918, 0.332, 192.0, 0.0, 0.0, 0.0, 0.0, 0.0, 0.0, 0.0, 0.0, 0.0, 1.7184700026996405E9, 0.0, 2024-06-15 11:46:42.699
116.0, 35281.20044245725, 41837.83880923257, 64552.55324274937, -187500.02235174447, -44661.78055546052, -187500.02235174447, -137727.38131611125, 83194.77983650922, -0.148, 0.918, 0.332, 192.0, 0.0, 0.0, 0.0, 0.0, 0.0, 0.0, 0.0, 0.0, 0.0, 1.718470002699649E9, 0.0, 2024-06-15 11:46:42.699
117.0, 35309.58715791549, 41977.60426731161, 63583.82863805636, -187500.02235174447, -45115.02922952524, -187500.02235174447, -137832.1886458622, 83185.4368073269, -0.148, 0.918, 0.332, 192.0, 0.0, 0.0, 0.0, 0.0, 0.0, 0.0, 0.0, 0.0, 0.0, 1.718470002699658E9, 0.0, 2024-06-15 11:46:42.699
118.0, 35411.51111263169, 42399.09111250533, 65250.10648371059, -187500.02235174447, -44515.980126378556, -187500.02235174447, -137534.99985158443, 83662.95947587007, -0.148, 0.918, 0.332, 192.0, 0.0, 0.0, 0.0, 0.0, 0.0, 0.0, 0.0, 0.0, 0.0, 1.7184700026996672E9, 0.0, 2024-06-15 11:46:42.699
119.0, 35399.038839225635, 42352.37596659374, 66548.92165051957, -187500.02235174447, -44372.7724996534, -187500.02235174447, -137360.90211402203, 84216.52277905021, -0.148, 0.918, 0.332, 192.0, 0.0, 0.0, 0.0, 0.0, 0.0, 0.0, 0.0, 0.0, 0.0, 1.7184700026996758E9, 0.0, 2024-06-15 11:46:42.699
120.0, 35290.34230593948, 41871.99227476028, 64954.90699468935, -187500.02235174447, -44563.499935090535, -187500.02235174447, -137615.4214281346, 83336.28873065577, -0.148, 0.918, 0.332, 192.0, 0.0, 0.0, 0.0, 0.0, 0.0, 0.0, 0.0, 0.0, 0.0, 1.7184700026996846E9, 0.0, 2024-06-15 11:46:42.699
121.0, 35303.14985551237, 41932.45374351189, 63610.762490125, -187500.02235174447, -45121.31006971718, -187500.02235174447, -137778.3209417249, 83212.7953425402, -0.14, 0.918, 0.338, 192.0, 251.0, 160.0, 28.0, 176.0, 10.0, 144.0, 0.0, 0.0, 0.0, 1.7184700026996934E9, 0.0, 2024-06-15 11:46:42.699
