%OpenBCI Raw EXG Data
%Number of channels = 8
%Sample Rate = 250 Hz
%Board = OpenBCI_GUI$BoardCytonSerial
Sample Index, EXG Channel 0, EXG Channel 1, EXG Channel 2, EXG Channel 3, EXG Channel 4, EXG Channel 5, EXG Channel 6, EXG Channel 7, Accel Channel 0, Accel Channel 1, Accel Channel 2, Other, Other, Other, Other, Other, Other, Other, Analog Channel 0, Analog Channel 1, Analog Channel 2, Timestamp, Other, Timestamp (Formatted)
168.0, 52077.61997909784, 44331.53353113336, 46280.98562729188, -187500.02235174447, -37597.10938896053, -187500.02235174447, -129115.50004667045, 50452.46934324138, 0.0, 0.0, 0.0, 192.0, 0.0, 0.0, 0.0, 0.0, 0.0, 0.0, 0.0, 0.0, 0.0, 1.7184697085706592E9, 0.0, 2024-06-15 11:41:48.570
169.0, 52001.579344460886, 44362.89302860416, 46142.44951515788, -187500.02235174447, -37683.387122558015, -187500.02235174447, -129148.08889008629, 50445.048564082215, 0.0, 0.0, 0.0, 192.0, 0.0, 0.0, 0.0, 0.0, 0.0, 0.0, 0.0, 0.0, 0.0, 1.718469708570675E9, 0.0, 2024-06-15 11:41:48.570
170.0, 51968.7669836005, 44587.95274352464, 46187.935315124436, -187500.02235174447, -37182.37277059231, -187500.02235174447, -128791.13153113503, 52368.37147097248, 0.0, 0.0, 0.0, 192.0, 0.0, 0.0, 0.0, 0.0, 0.0, 0.0, 0.0, 0.0, 0.0, 1.718469708570686E9, 0.0, 2024-06-15 11:41:48.570
171.0, 51980.34518722835, 44381.31086603533, 46295.40250246555, -187500.02235174447, -37024.52475124893, -187500.02235174447, -128722.28815821269, 52448.56953007812, 0.0, 0.0, 0.0, 192.0, 0.0, 0.0, 0.0, 0.0, 0.0, 0.0, 0.0, 0.0, 0.0, 1.7184697085706964E9, 0.0, 2024-06-15 11:41:48.570
172.0, 52075.22834244113, 44310.27702215636, 46129.99959349628, -187500.02235174447, -37669.55139274018, -187500.02235174447, -129120.14920951716, 50566.64205391909, 0.0, 0.0, 0.0, 192.0, 0.0, 0.0, 0.0, 0.0, 0.0, 0.0, 0.0, 0.0, 0.0, 1.7184697085707064E9, 0.0, 2024-06-15 11:41:48.570
173.0, 52018.857242924845, 44344.65400512863, 46291.937982074975, -187500.02235174447, -37577.43985383986, -187500.02235174447, -129129.84986661076, 50382.910714496466, 0.0, 0.0, 0.0, 192.0, 0.0, 0.0, 0.0, 0.0, 0.0, 0.0, 0.0, 0.0, 0.0, 1.7184697085707166E9, 0.0, 2024-06-15 11:41:48.570
174.0, 51968.52111441149, 44553.35224310783, 46045.82292387759, -187500.02235174447, -37378.39756946535, -187500.02235174447, -128869.80967161771, 51979.04878604994, 0.0, 0.0, 0.0, 192.0, 0.0, 0.0, 0.0, 0.0, 0.0, 0.0, 0.0, 0.0, 0.0, 1.7184697085707269E9, 0.0, 2024-06-15 11:41:48.570
175.0, 51995.074986824395, 44459.899599540186, 46440.86765538069, -187500.02235174447, -36814.15013243558, -187500.02235174447, -128607.53430217915, 52801.30240932732, 0.0, 0.0, 0.0, 192.0, 0.0, 0.0, 0.0, 0.0, 0.0, 0.0, 0.0, 0.0, 0.0, 1.7184697085707371E9, 0.0, 2024-06-15 11:41:48.570
176.0, 52090.38282518183, 44309.941745989534, 46028.23210099126, -187500.02235174447, -37673.239430575304, -187500.02235174447, -129073.29995313883, 50773.216876175036, -0.11800000000000001, 0.908, 0.34600000000000003, 192.0, 252.0, 80.0, 28.0, 96.0, 10.0, 208.0, 0.0, 0.0, 0.0, 1.718469708570768E9, 0.0, 2024-06-15 11:41:48.570
177.0, 52070.646234827786, 44375.387653754675, 46433.46922796598, -187500.02235174447, -37458.52857333763, -187500.02235174447, -129079.6702003086, 50388.632761077024, -0.11800000000000001, 0.908, 0.34600000000000003, 192.0, 0.0, 0.0, 0.0, 0.0, 0.0, 0.0, 0.0, 0.0, 0.0, 1.7184697085707781E9, 0.0, 2024-06-15 11:41:48.570
178.0, 51986.558972186926, 44538.398926067224, 45879.99533176367, -187500.02235174447, -37615.14724673596, -187500.02235174447, -129010.29038551931, 51511.651457745014, -0.11800000000000001, 0.908, 0.34600000000000003, 192.0, 0.0, 0.0, 0.0, 0.0, 0.0, 0.0, 0.0, 0.0, 0.0, 1.7184697085707889E9, 0.0, 2024-06-15 11:41:48.570
179.0, 51990.537582699966, 44539.449458056624, 46479.73733898847, -187500.02235174447, -36744.435041479475, -187500.02235174447, -128586.27779320214, 52987.805365062406, -0.11800000000000001, 0.908, 0.34600000000000003, 192.0, 0.0, 0.0, 0.0, 0.0, 0.0, 0.0, 0.0, 0.0, 0.0, 1.718469708570815E9, 0.0, 2024-06-15 11:41:48.570
180.0, 52059.58212132241, 44302.76683601938, 45922.396590995384, -187500.02235174447, -37683.811805702666, -187500.02235174447, -129064.49336582344, 51015.82271049294, -0.11800000000000001, 0.908, 0.34600000000000003, 192.0, 0.0, 0.0, 0.0, 0.0, 0.0, 0.0, 0.0, 0.0, 0.0, 1.7184697085708456E9, 0.0, 2024-06-15 11:41:48.570
181.0, 52081.03979599951, 44381.42262475761, 46483.648894268146, -187500.02235174447, -37421.93876766429, -187500.02235174447, -129071.5118135824, 50409.799863076194, -0.11800000000000001, 0.908, 0.34600000000000003, 192.0, 0.0, 0.0, 0.0, 0.0, 0.0, 0.0, 0.0, 0.0, 0.0, 1.7184697085708556E9, 0.0, 2024-06-15 11:41:48.570
182.0, 51983.541486685455, 44467.65565486618, 45819.712676967705, -187500.02235174447, -37756.47732692687, -187500.02235174447, -129104.95002328754, 51128.09552289195, -0.11800000000000001, 0.908, 0.34600000000000003, 192.0, 0.0, 0.0, 0.0, 0.0, 0.0, 0.0, 0.0, 0.0, 0.0, 1.718469708570866E9, 0.0, 2024-06-15 11:41:48.570
183.0, 51989.822326877395, 44573.088833461865, 46488.34276060376, -187500.02235174447, -36731.76160237331, -187500.02235174447, -128569.69279881631, 53073.703119004145, -0.11800000000000001, 0.908, 0.34600000000000003, 192.0, 0.0, 0.0, 0.0, 0.0, 0.0, 0.0, 0.0, 0.0, 0.0, 1.7184697085708923E9, 0.0, 2024-06-15 11:41:48.570
184.0, 52031.66479249773, 44289.24403062392, 45932.56663472255, -187500.02235174447, -37579.13858641846, -187500.02235174447, -128985.23407998492, 51381.65371199295, -0.11800000000000001, 0.908, 0.34600000000000003, 192.0, 0.0, 0.0, 0.0, 0.0, 0.0, 0.0, 0.0, 0.0, 0.0, 1.7184697085709023E9, 0.0, 2024-06-15 11:41:48.570
185.0, 52073.06022322896, 44363.04949081534, 46481.50312680044, -187500.02235174447, -37425.20212235476, -187500.02235174447, -129050.0094354164, 50469.90370391652, -0.11800000000000001, 0.908, 0.34600000000000003, 192.0, 0.0, 0.0, 0.0, 0.0, 0.0, 0.0, 0.0, 0.0, 0.0, 1.7184697085709124E9, 0.0, 2024-06-15 11:41:48.570
186.0, 51958.6639951067, 44398.253488332455, 45843.182008645774, -187500.02235174447, -37825.58892078268, -187500.02235174447, -129161.23171582601, 50821.854272109784, -0.128, 0.92, 0.33, 192.0, 252.0, 0.0, 28.0, 192.0, 10.0, 80.0, 0.0, 0.0, 0.0, 1.718469708570923E9, 0.0, 2024-06-15 11:41:48.570
187.0, 51946.10231472282, 44582.36480741081, 46391.40324490109, -187500.02235174447, -36860.93233358054, -187500.02235174447, -128621.37003199698, 52975.53425735644, -0.128, 0.92, 0.33, 192.0, 0.0, 0.0, 0.0, 0.0, 0.0, 0.0, 0.0, 0.0, 0.0, 1.7184697085709336E9, 0.0, 2024-06-15 11:41:48.570
188.0, 51991.38694898927, 44303.57149881977, 45968.3517775955, -187500.02235174447, -37465.971704241245, -187500.02235174447, -128930.87463746962, 51769.85880969272, -0.128, 0.92, 0.33, 192.0, 0.0, 0.0, 0.0, 0.0, 0.0, 0.0, 0.0, 0.0, 0.0, 1.7184697085709436E9, 0.0, 2024-06-15 11:41:48.570
189.0, 52062.10786844586, 44349.727851119984, 46375.53350633782, -187500.02235174447, -37525.15912355889, -187500.02235174447, -129083.09001721026, 50519.70339056294, -0.128, 0.92, 0.33, 192.0, 0.0, 0.0, 0.0, 0.0, 0.0, 0.0, 0.0, 0.0, 0.0, 1.7184697085709538E9, 0.0, 2024-06-15 11:41:48.570
190.0, 51954.126590982276, 44361.14959253664, 46002.99698150122, -187500.02235174447, -37761.126489773575, -187500.02235174447, -129135.95189284706, 50656.42901139605, -0.128, 0.92, 0.33, 192.0, 0.0, 0.0, 0.0, 0.0, 0.0, 0.0, 0.0, 0.0, 0.0, 1.7184697085709689E9, 0.0, 2024-06-15 11:41:48.570
191.0, 51929.919651737175, 44594.3229906944, 46264.266522439306, -187500.02235174447, -37044.08252764732, -187500.02235174447, -128687.53119558468, 52745.266585977864, -0.128, 0.92, 0.33, 192.0, 0.0, 0.0, 0.0, 0.0, 0.0, 0.0, 0.0, 0.0, 0.0, 1.718469708570979E9, 0.0, 2024-06-15 11:41:48.570
192.0, 51962.12851549727, 44348.900836575136, 46107.42433159642, -187500.02235174447, -37255.37356798334, -187500.02235174447, -128804.31906036366, 52221.028771523095, -0.128, 0.92, 0.33, 192.0, 0.0, 0.0, 0.0, 0.0, 0.0, 0.0, 0.0, 0.0, 0.0, 1.7184697085709891E9, 0.0, 2024-06-15 11:41:48.570
193.0, 52055.22353115363, 44350.62192089819, 46263.26069393882, -187500.02235174447, -37595.075380215094, -187500.02235174447, -129057.89960120912, 50628.73520001593, -0.128, 0.92, 0.33, 192.0, 0.0, 0.0, 0.0, 0.0, 0.0, 0.0, 0.0, 0.0, 0.0, 1.7184697085709991E9, 0.0, 2024-06-15 11:41:48.570
194.0, 51974.84665809234, 44361.77544138139, 46154.38534669702, -187500.02235174447, -37683.387122558015, -187500.02235174447, -129120.64094789517, 50543.7315158524, -0.128, 0.92, 0.33, 192.0, 0.0, 0.0, 0.0, 0.0, 0.0, 0.0, 0.0, 0.0, 0.0, 1.718469708571009E9, 0.0, 2024-06-15 11:41:48.571
195.0, 51928.69030579213, 44591.35020868185, 46063.346691530554, -187500.02235174447, -37318.941929214234, -187500.02235174447, -128814.71262153538, 52367.09742153853, -0.128, 0.92, 0.33, 192.0, 0.0, 0.0, 0.0, 0.0, 0.0, 0.0, 0.0, 0.0, 0.0, 1.7184697085710192E9, 0.0, 2024-06-15 11:41:48.571
196.0, 51941.07317222037, 44407.01537215893, 46211.1587776135, -187500.02235174447, -37107.114447011285, -187500.02235174447, -128731.9888153063, 52595.68871208295, -0.128, 0.92, 0.33, 192.0, 0.0, 0.0, 0.0, 0.0, 0.0, 0.0, 0.0, 0.0, 0.0, 1.71846970857103E9, 0.0, 2024-06-15 11:41:48.571
197.0, 52029.36256281884, 44311.79694077933, 46055.18830480437, -187500.02235174447, -37762.19937350743, -187500.02235174447, -129124.15017177466, 50706.921602120594, -0.126, 0.928, 0.324, 192.0, 252.0, 16.0, 29.0, 0.0, 10.0, 32.0, 0.0, 0.0, 0.0, 1.71846970857104E9, 0.0, 2024-06-15 11:41:48.571
198.0, 51976.92537032669, 44356.858057601225, 46312.568642207225, -187500.02235174447, -37608.48642688828, -187500.02235174447, -129105.70998259903, 50503.29721013275, -0.126, 0.928, 0.324, 192.0, 0.0, 0.0, 0.0, 0.0, 0.0, 0.0, 0.0, 0.0, 0.0, 1.7184697085710497E9, 0.0, 2024-06-15 11:41:48.571
199.0, 51900.03536940043, 44548.01017618301, 45888.421939423315, -187500.02235174447, -37590.24740341275, -187500.02235174447, -128938.69774802898, 51948.51630312399, -0.126, 0.928, 0.324, 192.0, 0.0, 0.0, 0.0, 0.0, 0.0, 0.0, 0.0, 0.0, 0.0, 1.71846970857106E9, 0.0, 2024-06-15 11:41:48.571
200.0, 51918.40850334269, 44453.328186670326, 46284.85247908264, -187500.02235174447, -37010.152579564165, -187500.02235174447, -128674.05309367814, 52897.549020951876, -0.126, 0.928, 0.324, 192.0, 0.0, 0.0, 0.0, 0.0, 0.0, 0.0, 0.0, 0.0, 0.0, 1.7184697085710864E9, 0.0, 2024-06-15 11:41:48.571
201.0, 52013.26930681102, 44286.76298698938, 45915.33343974751, -187500.02235174447, -37836.02718544331, -187500.02235174447, -129114.74008735896, 50918.23499420107, -0.126, 0.928, 0.324, 192.0, 0.0, 0.0, 0.0, 0.0, 0.0, 0.0, 0.0, 0.0, 0.0, 1.718469708571097E9, 0.0, 2024-06-15 11:41:48.571
202.0, 51989.218829777106, 44346.15157200713, 46451.261216552404, -187500.02235174447, -37523.438039235836, -187500.02235174447, -129065.20862164602, 50541.317527451225, -0.126, 0.928, 0.324, 192.0, 0.0, 0.0, 0.0, 0.0, 0.0, 0.0, 0.0, 0.0, 0.0, 1.718469708571107E9, 0.0, 2024-06-15 11:41:48.571
203.0, 51890.8488024293, 44477.49042242652, 45777.691397391725, -187500.02235174447, -37801.91842340451, -187500.02235174447, -129031.50219100741, 51543.36858312709, -0.126, 0.928, 0.324, 192.0, 0.0, 0.0, 0.0, 0.0, 0.0, 0.0, 0.0, 0.0, 0.0, 1.7184697085711176E9, 0.0, 2024-06-15 11:41:48.571
204.0, 51898.806023455385, 44501.54089946043, 46324.102142346164, -187500.02235174447, -36969.15948023313, -187500.02235174447, -128616.60911042799, 53096.52425009302, -0.126, 0.928, 0.324, 192.0, 0.0, 0.0, 0.0, 0.0, 0.0, 0.0, 0.0, 0.0, 0.0, 1.718469708571164E9, 0.0, 2024-06-15 11:41:48.571
205.0, 51983.407376218725, 44269.61919899216, 45832.7660957296, -187500.02235174447, -37850.48876410589, -187500.02235174447, -129077.88206075216, 51196.24599173618, -0.126, 0.928, 0.324, 192.0, 0.0, 0.0, 0.0, 0.0, 0.0, 0.0, 0.0, 0.0, 0.0, 1.7184697085711758E9, 0.0, 2024-06-15 11:41:48.571
206.0, 52015.50448125655, 44350.59956915374, 46547.37371771022, -187500.02235174447, -37474.84534679, -187500.02235174447, -129040.91227542309, 50595.833432177715, -0.126, 0.928, 0.324, 192.0, 0.0, 0.0, 0.0, 0.0, 0.0, 0.0, 0.0, 0.0, 0.0, 1.7184697085712028E9, 0.0, 2024-06-15 11:41:48.571
207.0, 51864.9431306056, 44408.512939037435, 45683.97053289063, -187500.02235174447, -38006.48158865948, -187500.02235174447, -129123.12199152971, 51148.70383127974, -0.122, 0.932, 0.316, 192.0, 252.0, 48.0, 29.0, 32.0, 9.0, 224.0, 0.0, 0.0, 0.0, 1.7184697085712135E9, 0.0, 2024-06-15 11:41:48.571
208.0, 51785.549734300344, 44539.09183014534, 45344.89456950362, -187500.02235174447, -37953.55265778931, -187500.02235174447, -128899.78336093228, 52718.80212054278, -0.122, 0.932, 0.316, 192.0, 0.0, 0.0, 0.0, 0.0, 0.0, 0.0, 0.0, 0.0, 0.0, 1.718469708571226E9, 0.0, 2024-06-15 11:41:48.571
209.0, 51922.722390022565, 44306.879556999156, 44466.24749496549, -187500.02235174447, -39200.17650129515, -187500.02235174447, -129435.93465518173, 51043.538873617515, -0.122, 0.932, 0.316, 192.0, 0.0, 0.0, 0.0, 0.0, 0.0, 0.0, 0.0, 0.0, 0.0, 1.7184697085712423E9, 0.0, 2024-06-15 11:41:48.571
210.0, 52033.72115298762, 44381.10970033523, 45564.187534354634, -187500.02235174447, -38630.855218274024, -187500.02235174447, -129354.03786349749, 50360.02252817423, -0.122, 0.932, 0.316, 192.0, 0.0, 0.0, 0.0, 0.0, 0.0, 0.0, 0.0, 0.0, 0.0, 1.7184697085712523E9, 0.0, 2024-06-15 11:41:48.571
211.0, 51882.109270347275, 44373.75597640943, 45016.54744345516, -187500.02235174447, -38997.91556571908, -187500.02235174447, -129420.4001927853, 50699.254953772426, -0.122, 0.932, 0.316, 192.0, 0.0, 0.0, 0.0, 0.0, 0.0, 0.0, 0.0, 0.0, 0.0, 1.7184697085712652E9, 0.0, 2024-06-15 11:41:48.571
212.0, 51858.349365991286, 44558.96253096611, 45340.893607246115, -187500.02235174447, -38285.096083294884, -187500.02235174447, -128959.59662909468, 52793.70281621251, -0.122, 0.932, 0.316, 192.0, 0.0, 0.0, 0.0, 0.0, 0.0, 0.0, 0.0, 0.0, 0.0, 1.7184697085712757E9, 0.0, 2024-06-15 11:41:48.571
213.0, 51939.37443964177, 44292.23916438093, 45174.574276754174, -187500.02235174447, -38675.379893229, -187500.02235174447, -129183.24818411449, 51829.24739471047, -0.122, 0.932, 0.316, 192.0, 0.0, 0.0, 0.0, 0.0, 0.0, 0.0, 0.0, 0.0, 0.0, 1.7184697085712855E9, 0.0, 2024-06-15 11:41:48.571
214.0, 52043.91354845924, 44326.12440897518, 45983.70742603629, -187500.02235174447, -38396.318363704486, -187500.02235174447, -129237.38410918524, 50687.60969491121, -0.122, 0.932, 0.316, 192.0, 0.0, 0.0, 0.0, 0.0, 0.0, 0.0, 0.0, 0.0, 0.0, 1.7184697085712953E9, 0.0, 2024-06-15 11:41:48.571
215.0, 51888.59127623931, 44314.8591297697, 45616.96000301361, -187500.02235174447, -38654.36925344101, -187500.02235174447, -129335.10593594384, 50718.07512260379, -0.122, 0.932, 0.316, 192.0, 0.0, 0.0, 0.0, 0.0, 0.0, 0.0, 0.0, 0.0, 0.0, 1.718469708571305E9, 0.0, 2024-06-15 11:41:48.571
216.0, 51843.26193848395, 44558.560199565916, 45474.065300710834, -187500.02235174447, -38349.51381081508, -187500.02235174447, -129030.22814157346, 52612.63133438007, -0.122, 0.932, 0.316, 192.0, 0.0, 0.0, 0.0, 0.0, 0.0, 0.0, 0.0, 0.0, 0.0, 1.7184697085713146E9, 0.0, 2024-06-15 11:41:48.571
217.0, 51912.46293931758, 44339.311938203806, 45478.78151879091, -187500.02235174447, -38423.1181053064, -187500.02235174447, -129085.14637770015, 52302.97026669625, -0.124, 0.934, 0.32, 192.0, 252.0, 32.0, 29.0, 48.0, 10.0, 0.0, 0.0, 0.0, 0.0, 1.7184697085713243E9, 0.0, 2024-06-15 11:41:48.571
218.0, 52038.63853676779, 44316.71432455949, 46001.410007644896, -187500.02235174447, -38446.654492217844, -187500.02235174447, -129252.8068128594, 50821.31783024286, -0.124, 0.934, 0.32, 192.0, 0.0, 0.0, 0.0, 0.0, 0.0, 0.0, 0.0, 0.0, 0.0, 1.7184697085713341E9, 0.0, 2024-06-15 11:41:48.571
219.0, 51924.01879120097, 44328.78426656536, 46033.864740594, -187500.02235174447, -38418.15601803733, -187500.02235174447, -129291.16240634471, 50707.905078876625, -0.124, 0.934, 0.32, 192.0, 0.0, 0.0, 0.0, 0.0, 0.0, 0.0, 0.0, 0.0, 0.0, 1.7184697085713437E9, 0.0, 2024-06-15 11:41:48.571
220.0, 51839.28332797091, 44547.786658738456, 45524.826112368835, -187500.02235174447, -38462.524230781106, -187500.02235174447, -129128.44170671007, 52300.712740506264, -0.124, 0.934, 0.32, 192.0, 0.0, 0.0, 0.0, 0.0, 0.0, 0.0, 0.0, 0.0, 0.0, 1.7184697085713534E9, 0.0, 2024-06-15 11:41:48.571
221.0, 51866.55245620638, 44376.371130510706, 45752.25511220159, -187500.02235174447, -38167.41414873769, -187500.02235174447, -128973.00767576786, 52724.94885026799, -0.124, 0.934, 0.32, 192.0, 0.0, 0.0, 0.0, 0.0, 0.0, 0.0, 0.0, 0.0, 0.0, 1.7184697085713632E9, 0.0, 2024-06-15 11:41:48.571
222.0, 52007.793129419464, 44282.24793460941, 45884.59979112146, -187500.02235174447, -38560.51427847317, -187500.02235174447, -129274.19743230313, 50951.203817272646, -0.124, 0.934, 0.32, 192.0, 0.0, 0.0, 0.0, 0.0, 0.0, 0.0, 0.0, 0.0, 0.0, 1.7184697085713727E9, 0.0, 2024-06-15 11:41:48.571
223.0, 51954.14894272673, 44306.320763387776, 46334.56275875125, -187500.02235174447, -38242.80658278544, -187500.02235174447, -129229.13631548123, 50729.921547165104, -0.124, 0.934, 0.32, 192.0, 0.0, 0.0, 0.0, 0.0, 0.0, 0.0, 0.0, 0.0, 0.0, 1.7184697085713828E9, 0.0, 2024-06-15 11:41:48.571
224.0, 51841.02676403842, 44479.99381780551, 45564.65692098819, -187500.02235174447, -38566.549249476106, -187500.02235174447, -129202.98477446852, 51928.600898814315, -0.124, 0.934, 0.32, 192.0, 0.0, 0.0, 0.0, 0.0, 0.0, 0.0, 0.0, 0.0, 0.0, 1.7184697085713933E9, 0.0, 2024-06-15 11:41:48.571
225.0, 51877.281293544926, 44439.69362255259, 45933.460704500765, -187500.02235174447, -38007.71093460452, -187500.02235174447, -128928.46064906844, 52998.131871000754, -0.124, 0.934, 0.32, 192.0, 0.0, 0.0, 0.0, 0.0, 0.0, 0.0, 0.0, 0.0, 0.0, 1.7184697085714028E9, 0.0, 2024-06-15 11:41:48.571
226.0, 51993.30919901242, 44261.68432971052, 45772.930475822744, -187500.02235174447, -38637.65014858844, -187500.02235174447, -129290.29068831095, 51137.639717774364, -0.124, 0.934, 0.32, 192.0, 0.0, 0.0, 0.0, 0.0, 0.0, 0.0, 0.0, 0.0, 0.0, 1.7184697085714123E9, 0.0, 2024-06-15 11:41:48.571
227.0, 51980.188725017164, 44324.15745546311, 46507.78877827988, -187500.02235174447, -38152.617293908275, -187500.02235174447, -129208.7962280269, 50762.1304109252, -0.114, 0.934, 0.328, 192.0, 252.0, 112.0, 29.0, 48.0, 10.0, 64.0, 0.0, 0.0, 0.0, 1.7184697085714223E9, 0.0, 2024-06-15 11:41:48.571
228.0, 51843.0384210394, 44428.875378236226, 45623.956099028124, -187500.02235174447, -38641.069965490104, -187500.02235174447, -129270.79996714593, 51570.30243519574, -0.114, 0.934, 0.328, 192.0, 0.0, 0.0, 0.0, 0.0, 0.0, 0.0, 0.0, 0.0, 0.0, 1.7184697085714324E9, 0.0, 2024-06-15 11:41:48.571
229.0, 51859.75752589197, 44484.642980652214, 46074.61197073603, -187500.02235174447, -37885.24572673389, -187500.02235174447, -128878.52685195529, 53180.9020854118, -0.114, 0.934, 0.328, 192.0, 0.0, 0.0, 0.0, 0.0, 0.0, 0.0, 0.0, 0.0, 0.0, 1.718469708571442E9, 0.0, 2024-06-15 11:41:48.571
230.0, 51955.24417820504, 44242.46182947896, 45663.20576229165, -187500.02235174447, -38685.4828817228, -187500.02235174447, -129316.66574676821, 51365.471049007305, -0.114, 0.934, 0.328, 192.0, 0.0, 0.0, 0.0, 0.0, 0.0, 0.0, 0.0, 0.0, 0.0, 1.718469708571452E9, 0.0, 2024-06-15 11:41:48.571
231.0, 51991.85633562283, 44314.92618500307, 46503.11726368872, -187500.02235174447, -38208.89898644674, -187500.02235174447, -129242.56971389888, 50761.77278301392, -0.114, 0.934, 0.328, 192.0, 0.0, 0.0, 0.0, 0.0, 0.0, 0.0, 0.0, 0.0, 0.0, 1.7184697085714617E9, 0.0, 2024-06-15 11:41:48.571
232.0, 51857.18707527961, 44374.31477002082, 45715.061809427956, -187500.02235174447, -38685.4828817228, -187500.02235174447, -129324.75707826104, 51251.723021474245, -0.114, 0.934, 0.328, 192.0, 0.0, 0.0, 0.0, 0.0, 0.0, 0.0, 0.0, 0.0, 0.0, 1.718469708571473E9, 0.0, 2024-06-15 11:41:48.571
233.0, 51852.537912432905, 44520.36106829179, 46157.38048045403, -187500.02235174447, -37852.94745599597, -187500.02235174447, -128852.35295919812, 53223.593917321436, -0.114, 0.934, 0.328, 192.0, 0.0, 0.0, 0.0, 0.0, 0.0, 0.0, 0.0, 0.0, 0.0, 1.7184697085714827E9, 0.0, 2024-06-15 11:41:48.571
234.0, 51928.98087847005, 44249.92731212704, 45723.55547232097, -187500.02235174447, -38556.84859238251, -187500.02235174447, -129218.16160895368, 51743.90843438011, -0.114, 0.934, 0.328, 192.0, 0.0, 0.0, 0.0, 0.0, 0.0, 0.0, 0.0, 0.0, 0.0, 1.7184697085714927E9, 0.0, 2024-06-15 11:41:48.571
235.0, 52008.66484745322, 44327.17494096458, 46382.08256746323, -187500.02235174447, -38342.16008688928, -187500.02235174447, -129275.91851662619, 50764.85732374875, -0.114, 0.934, 0.328, 192.0, 0.0, 0.0, 0.0, 0.0, 0.0, 0.0, 0.0, 0.0, 0.0, 1.7184697085715027E9, 0.0, 2024-06-15 11:41:48.571
236.0, 51876.722499933545, 44331.757048577914, 45809.989668129645, -187500.02235174447, -38706.60528023306, -187500.02235174447, -129359.64815135577, 50993.73918697109, -0.114, 0.934, 0.328, 192.0, 0.0, 0.0, 0.0, 0.0, 0.0, 0.0, 0.0, 0.0, 0.0, 1.7184697085715127E9, 0.0, 2024-06-15 11:41:48.571
237.0, 51854.46016245606, 44540.56704527939, 46149.93734955041, -187500.02235174447, -37917.67810793854, -187500.02235174447, -128874.70470365343, 53113.01983750104, -0.114, 0.934, 0.328, 192.0, 0.0, 0.0, 0.0, 0.0, 0.0, 0.0, 0.0, 0.0, 0.0, 1.718469708571523E9, 0.0, 2024-06-15 11:41:48.571
238.0, 51904.17044212466, 44293.58026904825, 45850.11104942692, -187500.02235174447, -38360.26499989808, -187500.02235174447, -129135.63896842468, 52158.93562542625, -0.112, 0.928, 0.334, 192.0, 252.0, 128.0, 29.0, 0.0, 10.0, 112.0, 0.0, 0.0, 0.0, 1.7184697085715523E9, 0.0, 2024-06-15 11:41:48.571
239.0, 52002.8757456393, 44327.59962410923, 46238.09262968214, -187500.02235174447, -38465.60877151594, -187500.02235174447, -129327.7745637625, 50793.199335718076, -0.112, 0.928, 0.334, 192.0, 0.0, 0.0, 0.0, 0.0, 0.0, 0.0, 0.0, 0.0, 0.0, 1.7184697085715628E9, 0.0, 2024-06-15 11:41:48.571
240.0, 51907.52320379296, 44324.5150833744, 45947.38584129642, -187500.02235174447, -38667.75794836974, -187500.02235174447, -129413.71702119315, 50805.783367846416, -0.112, 0.928, 0.334, 192.0, 0.0, 0.0, 0.0, 0.0, 0.0, 0.0, 0.0, 0.0, 0.0, 1.7184697085715728E9, 0.0, 2024-06-15 11:41:48.571
241.0, 51870.53106671942, 44566.60682756983, 46043.47599070978, -187500.02235174447, -38103.06347645086, -187500.02235174447, -128998.22044351345, 52820.144929903145, -0.112, 0.928, 0.334, 192.0, 0.0, 0.0, 0.0, 0.0, 0.0, 0.0, 0.0, 0.0, 0.0, 1.7184697085715983E9, 0.0, 2024-06-15 11:41:48.571
242.0, 51894.98387515353, 44321.09526647273, 46073.31556955762, -187500.02235174447, -38078.63301976121, -187500.02235174447, -128995.53823417882, 52633.910195101525, -0.112, 0.928, 0.334, 192.0, 0.0, 0.0, 0.0, 0.0, 0.0, 0.0, 0.0, 0.0, 0.0, 1.718469708571608E9, 0.0, 2024-06-15 11:41:48.571
243.0, 51989.419995477205, 44271.74261471541, 46112.22995665431, -187500.02235174447, -38545.985644577224, -187500.02235174447, -129337.67638655621, 50888.97656070907, -0.112, 0.928, 0.334, 192.0, 0.0, 0.0, 0.0, 0.0, 0.0, 0.0, 0.0, 0.0, 0.0, 1.7184697085716178E9, 0.0, 2024-06-15 11:41:48.571
244.0, 51913.69228526262, 44291.61331553618, 46156.97814905383, -187500.02235174447, -38532.86517058196, -187500.02235174447, -129382.02224755553, 50743.846683960764, -0.112, 0.928, 0.334, 192.0, 0.0, 0.0, 0.0, 0.0, 0.0, 0.0, 0.0, 0.0, 0.0, 1.7184697085716276E9, 0.0, 2024-06-15 11:41:48.571
245.0, 51858.30466250237, 44506.7041524296, 45912.338305990495, -187500.02235174447, -38315.87443540984, -187500.02235174447, -129132.17444803411, 52416.15950061793, -0.112, 0.928, 0.334, 192.0, 0.0, 0.0, 0.0, 0.0, 0.0, 0.0, 0.0, 0.0, 0.0, 1.718469708571638E9, 0.0, 2024-06-15 11:41:48.571
246.0, 51871.87217138674, 44366.379900739186, 46206.33080081115, -187500.02235174447, -37898.299145495796, -187500.02235174447, -128948.15253593356, 52973.65671082219, -0.112, 0.928, 0.334, 192.0, 0.0, 0.0, 0.0, 0.0, 0.0, 0.0, 0.0, 0.0, 0.0, 1.7184697085716476E9, 0.0, 2024-06-15 11:41:48.571
247.0, 51970.130440012275, 44262.24312332191, 45944.03307962812, -187500.02235174447, -38647.46256440432, -187500.02235174447, -129382.37987546682, 51005.25033536558, -0.112, 0.928, 0.334, 192.0, 0.0, 0.0, 0.0, 0.0, 0.0, 0.0, 0.0, 0.0, 0.0, 1.7184697085716572E9, 0.0, 2024-06-15 11:41:48.571
248.0, 51933.339468638835, 44319.28477517185, 46306.623078182114, -187500.02235174447, -38442.40766077133, -187500.02235174447, -129373.59563989588, 50719.66209646012, -0.11, 0.924, 0.338, 192.0, 252.0, 144.0, 28.0, 224.0, 10.0, 144.0, 0.0, 0.0, 0.0, 1.7184697085716667E9, 0.0, 2024-06-15 11:41:48.571
249.0, 51850.436848454105, 44471.9471898016, 45813.65535422032, -187500.02235174447, -38514.67085059534, -187500.02235174447, -129256.5619059279, 51988.637684421265, -0.11, 0.924, 0.338, 192.0, 0.0, 0.0, 0.0, 0.0, 0.0, 0.0, 0.0, 0.0, 0.0, 1.718469708571677E9, 0.0, 2024-06-15 11:41:48.571
250.0, 51860.428078225625, 44444.946282499586, 46328.77365693732, -187500.02235174447, -37757.14787926053, -187500.02235174447, -128905.70657321294, 53237.921385517286, -0.11, 0.924, 0.338, 192.0, 0.0, 0.0, 0.0, 0.0, 0.0, 0.0, 0.0, 0.0, 0.0, 1.71846970857169E9, 0.0, 2024-06-15 11:41:48.571
251.0, 51949.65624209121, 44255.627006963135, 45817.83513043346, -187500.02235174447, -38696.61405046154, -187500.02235174447, -129409.29137579101, 51207.71243664175, -0.11, 0.924, 0.338, 192.0, 0.0, 0.0, 0.0, 0.0, 0.0, 0.0, 0.0, 0.0, 0.0, 1.7184697085717E9, 0.0, 2024-06-15 11:41:48.571
252.0, 51953.45603864861, 44316.1108274592, 46402.22148921746, -187500.02235174447, -38382.192061208734, -187500.02235174447, -129360.4304624117, 50754.97785269951, -0.11, 0.924, 0.338, 192.0, 0.0, 0.0, 0.0, 0.0, 0.0, 0.0, 0.0, 0.0, 0.0, 1.71846970857171E9, 0.0, 2024-06-15 11:41:48.571
253.0, 51860.11515380325, 44420.895805465676, 45774.38333921234, -187500.02235174447, -38649.60833187203, -187500.02235174447, -129346.0806424714, 51606.1322815576, -0.11, 0.924, 0.338, 192.0, 0.0, 0.0, 0.0, 0.0, 0.0, 0.0, 0.0, 0.0, 0.0, 1.7184697085717208E9, 0.0, 2024-06-15 11:41:48.571
254.0, 51866.88773237321, 44497.159957547185, 46408.88230906514, -187500.02235174447, -37680.369637056545, -187500.02235174447, -128875.03997982026, 53388.66155012388, -0.11, 0.924, 0.338, 192.0, 0.0, 0.0, 0.0, 0.0, 0.0, 0.0, 0.0, 0.0, 0.0, 1.7184697085717487E9, 0.0, 2024-06-15 11:41:48.571
255.0, 51924.17525341216, 44242.975919601435, 45829.54744452804, -187500.02235174447, -38600.032162670155, -187500.02235174447, -129343.21961918112, 51545.51435059481, -0.11, 0.924, 0.338, 192.0, 0.0, 0.0, 0.0, 0.0, 0.0, 0.0, 0.0, 0.0, 0.0, 1.7184697085717592E9, 0.0, 2024-06-15 11:41:48.571
0.0, 51967.112954510805, 44335.44508641304, 46421.622803404665, -187500.02235174447, -38374.726578560665, -187500.02235174447, -129356.31774143194, 50790.49477463899, -0.11, 0.924, 0.338, 192.0, 0.0, 0.0, 0.0, 0.0, 0.0, 0.0, 0.0, 0.0, 0.0, 1.7184697085717702E9, 0.0, 2024-06-15 11:41:48.571
1.0, 51871.02280509744, 44379.74624392346, 45780.82064161547, -187500.02235174447, -38739.52939981573, -187500.02235174447, -129438.19218137172, 51251.79007670761, -0.11, 0.924, 0.338, 192.0, 0.0, 0.0, 0.0, 0.0, 0.0, 0.0, 0.0, 0.0, 0.0, 1.7184697085717995E9, 0.0, 2024-06-15 11:41:48.571
2.0, 51864.563150949856, 44524.29497531593, 46375.488802848915, -187500.02235174447, -37735.42198364997, -187500.02235174447, -128922.76095423233, 53340.78411350061, -0.11800000000000001, 0.916, 0.342, 192.0, 252.0, 80.0, 28.0, 160.0, 10.0, 176.0, 0.0, 0.0, 0.0, 1.7184697085718257E9, 0.0, 2024-06-15 11:41:48.571
3.0, 51904.88569794723, 44242.685346923514, 45883.973942276716, -187500.02235174447, -38452.42124228731, -187500.02235174447, -129285.97680163108, 51913.37936084025, -0.11800000000000001, 0.916, 0.342, 192.0, 0.0, 0.0, 0.0, 0.0, 0.0, 0.0, 0.0, 0.0, 0.0, 1.7184697085718517E9, 0.0, 2024-06-15 11:41:48.571
4.0, 51975.651320892735, 44315.66379257009, 46300.275182756806, -187500.02235174447, -38485.47947233671, -187500.02235174447, -129430.14555336781, 50779.27419892242, -0.11800000000000001, 0.916, 0.342, 192.0, 0.0, 0.0, 0.0, 0.0, 0.0, 0.0, 0.0, 0.0, 0.0, 1.7184697085718615E9, 0.0, 2024-06-15 11:41:48.571
5.0, 51888.79244193941, 44345.10104001773, 45855.34135762946, -187500.02235174447, -38763.64693208301, -187500.02235174447, -129501.22410073568, 50997.9860184176, -0.11800000000000001, 0.916, 0.342, 192.0, 0.0, 0.0, 0.0, 0.0, 0.0, 0.0, 0.0, 0.0, 0.0, 1.7184697085718713E9, 0.0, 2024-06-15 11:41:48.571
6.0, 51867.357119006774, 44564.908094991224, 46298.531746689296, -187500.02235174447, -37867.07375849173, -187500.02235174447, -128986.75399860788, 53169.88267539533, -0.11800000000000001, 0.916, 0.342, 192.0, 0.0, 0.0, 0.0, 0.0, 0.0, 0.0, 0.0, 0.0, 0.0, 1.7184697085718813E9, 0.0, 2024-06-15 11:41:48.571
7.0, 51885.57379073784, 44278.71635898547, 46013.79287407314, -187500.02235174447, -38249.66856833322, -187500.02235174447, -129202.78360876843, 52344.36569742748, -0.11800000000000001, 0.916, 0.342, 192.0, 0.0, 0.0, 0.0, 0.0, 0.0, 0.0, 0.0, 0.0, 0.0, 1.7184697085718913E9, 0.0, 2024-06-15 11:41:48.571
8.0, 51971.11391676831, 44297.82710049476, 46171.12680329404, -187500.02235174447, -38581.994304894724, -187500.02235174447, -129464.43312936225, 50836.82994089484, -0.11800000000000001, 0.916, 0.342, 192.0, 0.0, 0.0, 0.0, 0.0, 0.0, 0.0, 0.0, 0.0, 0.0, 1.7184697085719008E9, 0.0, 2024-06-15 11:41:48.571
9.0, 51894.067453630865, 44315.596737336724, 45981.24873414621, -187500.02235174447, -38722.027983907225, -187500.02235174447, -129529.76727840511, 50839.73566767403, -0.11800000000000001, 0.916, 0.342, 192.0, 0.0, 0.0, 0.0, 0.0, 0.0, 0.0, 0.0, 0.0, 0.0, 1.7184697085719123E9, 0.0, 2024-06-15 11:41:48.571
10.0, 51850.45920019856, 44537.43780105565, 46149.13268675002, -187500.02235174447, -38091.35116235628, -187500.02235174447, -129109.59918613425, 52842.40726738063, -0.11800000000000001, 0.916, 0.342, 192.0, 0.0, 0.0, 0.0, 0.0, 0.0, 0.0, 0.0, 0.0, 0.0, 1.7184697085719228E9, 0.0, 2024-06-15 11:41:48.571
11.0, 51863.847895127285, 44326.660850842105, 46176.871201619055, -187500.02235174447, -38034.3765657397, -187500.02235174447, -129116.41646819311, 52763.036222819836, -0.11800000000000001, 0.916, 0.342, 192.0, 0.0, 0.0, 0.0, 0.0, 0.0, 0.0, 0.0, 0.0, 0.0, 1.7184697085719328E9, 0.0, 2024-06-15 11:41:48.571
12.0, 51946.705811823114, 44279.07398689676, 46001.879394278454, -187500.02235174447, -38708.30401281166, -187500.02235174447, -129519.55253118904, 50909.07077897439, -0.122, 0.92, 0.342, 192.0, 252.0, 48.0, 28.0, 192.0, 10.0, 176.0, 0.0, 0.0, 0.0, 1.7184697085719433E9, 0.0, 2024-06-15 11:41:48.571
13.0, 51901.71175023458, 44331.53353113336, 46124.45636087136, -187500.02235174447, -38657.4761459203, -187500.02235174447, -129534.327034274, 50761.63867254718, -0.122, 0.92, 0.342, 192.0, 0.0, 0.0, 0.0, 0.0, 0.0, 0.0, 0.0, 0.0, 0.0, 1.718469708571953E9, 0.0, 2024-06-15 11:41:48.571
14.0, 51851.53208393241, 44518.17059733517, 45988.5577545831, -187500.02235174447, -38347.74802300311, -187500.02235174447, -129247.3082837234, 52428.83293972408, -0.122, 0.92, 0.342, 192.0, 0.0, 0.0, 0.0, 0.0, 0.0, 0.0, 0.0, 0.0, 0.0, 1.7184697085719633E9, 0.0, 2024-06-15 11:41:48.571
15.0, 51858.483476458016, 44394.8783749197, 46358.81440148526, -187500.02235174447, -37819.12926663509, -187500.02235174447, -129014.51486522137, 53144.15581752727, -0.122, 0.92, 0.342, 192.0, 0.0, 0.0, 0.0, 0.0, 0.0, 0.0, 0.0, 0.0, 0.0, 1.7184697085719736E9, 0.0, 2024-06-15 11:41:48.571
16.0, 51939.59795708632, 44287.500594556404, 45885.85148881096, -187500.02235174447, -38762.641103582515, -187500.02235174447, -129525.4757434697, 51077.11119378939, -0.122, 0.92, 0.342, 192.0, 0.0, 0.0, 0.0, 0.0, 0.0, 0.0, 0.0, 0.0, 0.0, 1.718469708571983E9, 0.0, 2024-06-15 11:41:48.571
17.0, 51920.218994643576, 44336.7638393359, 46243.59115881815, -187500.02235174447, -38595.137130634444, -187500.02235174447, -129528.6720429268, 50747.892349707174, -0.122, 0.92, 0.342, 192.0, 0.0, 0.0, 0.0, 0.0, 0.0, 0.0, 0.0, 0.0, 0.0, 1.718469708571993E9, 0.0, 2024-06-15 11:41:48.571
18.0, 51851.6885461436, 44461.53127688543, 45863.11976469991, -187500.02235174447, -38572.76303443468, -187500.02235174447, -129369.01353228254, 52006.31791428541, -0.122, 0.92, 0.342, 192.0, 0.0, 0.0, 0.0, 0.0, 0.0, 0.0, 0.0, 0.0, 0.0, 1.718469708572003E9, 0.0, 2024-06-15 11:41:48.572
19.0, 51849.02868855342, 44444.521599354935, 46460.224266078985, -187500.02235174447, -37708.689297281424, -187500.02235174447, -128974.05820775726, 53388.61684663497, -0.122, 0.92, 0.342, 192.0, 0.0, 0.0, 0.0, 0.0, 0.0, 0.0, 0.0, 0.0, 0.0, 1.7184697085720143E9, 0.0, 2024-06-15 11:41:48.572
20.0, 51905.13156713624, 44233.52113169684, 45832.721392240695, -187500.02235174447, -38738.747088759796, -187500.02235174447, -129491.0093535196, 51339.811246372614, -0.122, 0.92, 0.342, 192.0, 0.0, 0.0, 0.0, 0.0, 0.0, 0.0, 0.0, 0.0, 0.0, 1.7184697085720246E9, 0.0, 2024-06-15 11:41:48.572
21.0, 51932.33364013835, 44323.375144407175, 46319.765903921834, -187500.02235174447, -38550.455993468284, -187500.02235174447, -129506.25324323813, 50776.346120398775, -0.122, 0.92, 0.342, 192.0, 0.0, 0.0, 0.0, 0.0, 0.0, 0.0, 0.0, 0.0, 0.0, 1.7184697085720344E9, 0.0, 2024-06-15 11:41:48.572
22.0, 51853.94607233359, 44412.49154955048, 45760.637016372326, -187500.02235174447, -38781.70714160289, -187500.02235174447, -129508.62252815039, 51577.83497307718, -0.122, 0.92, 0.342, 192.0, 0.0, 0.0, 0.0, 0.0, 0.0, 0.0, 0.0, 0.0, 0.0, 1.7184697085720444E9, 0.0, 2024-06-15 11:41:48.572
23.0, 51851.30856648786, 44505.072475084366, 46478.21742036551, -187500.02235174447, -37710.96917521586, -187500.02235174447, -128989.27974573133, 53478.24734190075, -0.11800000000000001, 0.924, 0.338, 192.0, 252.0, 80.0, 28.0, 224.0, 10.0, 144.0, 0.0, 0.0, 0.0, 1.7184697085720544E9, 0.0, 2024-06-15 11:41:48.572
24.0, 51898.26958158846, 44249.10029758219, 45823.04308689154, -187500.02235174447, -38676.65394266295, -187500.02235174447, -129472.47975736616, 51666.48199158692, -0.11800000000000001, 0.924, 0.338, 192.0, 0.0, 0.0, 0.0, 0.0, 0.0, 0.0, 0.0, 0.0, 0.0, 1.7184697085720646E9, 0.0, 2024-06-15 11:41:48.572
25.0, 51938.70388730811, 44346.866827829705, 46292.80970010874, -187500.02235174447, -38596.96997367978, -187500.02235174447, -129543.37949077839, 50803.45878642306, -0.11800000000000001, 0.924, 0.338, 192.0, 0.0, 0.0, 0.0, 0.0, 0.0, 0.0, 0.0, 0.0, 0.0, 1.718469708572075E9, 0.0, 2024-06-15 11:41:48.572
26.0, 51854.840142111796, 44393.24669757446, 45775.23270550164, -187500.02235174447, -38872.11994792461, -187500.02235174447, -129579.43285458481, 51269.492658316216, -0.11800000000000001, 0.924, 0.338, 192.0, 0.0, 0.0, 0.0, 0.0, 0.0, 0.0, 0.0, 0.0, 0.0, 1.7184697085720851E9, 0.0, 2024-06-15 11:41:48.572
27.0, 51844.9383193181, 44561.95766472312, 46473.30003658534, -187500.02235174447, -37753.19162049194, -187500.02235174447, -128984.40706544007, 53467.227931884285, -0.11800000000000001, 0.924, 0.338, 192.0, 0.0, 0.0, 0.0, 0.0, 0.0, 0.0, 0.0, 0.0, 0.0, 1.7184697085720952E9, 0.0, 2024-06-15 11:41:48.572
28.0, 51872.49802023149, 44248.072117337244, 45947.005861640675, -187500.02235174447, -38474.348303597966, -187500.02235174447, -129354.84252629789, 52106.096101533905, -0.11800000000000001, 0.924, 0.338, 192.0, 0.0, 0.0, 0.0, 0.0, 0.0, 0.0, 0.0, 0.0, 0.0, 1.7184697085721054E9, 0.0, 2024-06-15 11:41:48.572
29.0, 51946.705811823114, 44299.79405400682, 46205.30262056621, -187500.02235174447, -38678.93382059739, -187500.02235174447, -129570.29099110258, 50838.215749051065, -0.11800000000000001, 0.924, 0.338, 192.0, 0.0, 0.0, 0.0, 0.0, 0.0, 0.0, 0.0, 0.0, 0.0, 1.7184697085721154E9, 0.0, 2024-06-15 11:41:48.572
30.0, 51876.25311329999, 44326.035001997356, 45831.089714895454, -187500.02235174447, -38923.10427702717, -187500.02235174447, -129645.32579723906, 51013.900460469784, -0.11800000000000001, 0.924, 0.338, 192.0, 0.0, 0.0, 0.0, 0.0, 0.0, 0.0, 0.0, 0.0, 0.0, 1.718469708572125E9, 0.0, 2024-06-15 11:41:48.572
31.0, 51857.49999970198, 44543.07044065839, 46300.20812752344, -187500.02235174447, -38005.92279504809, -187500.02235174447, -129127.12295378721, 53195.90010594131, -0.11800000000000001, 0.924, 0.338, 192.0, 0.0, 0.0, 0.0, 0.0, 0.0, 0.0, 0.0, 0.0, 0.0, 1.718469708572135E9, 0.0, 2024-06-15 11:41:48.572
32.0, 51868.899389374186, 44281.353864831195, 46097.880136714004, -187500.02235174447, -38275.41777794573, -187500.02235174447, -129266.48608046606, 52549.82293246066, -0.11800000000000001, 0.924, 0.338, 192.0, 0.0, 0.0, 0.0, 0.0, 0.0, 0.0, 0.0, 0.0, 0.0, 1.7184697085721452E9, 0.0, 2024-06-15 11:41:48.572
33.0, 51942.70484956561, 44290.62983878015, 46131.76538130824, -187500.02235174447, -38732.13097240102, -187500.02235174447, -129551.8731536714, 50956.45647721964, -0.12, 0.928, 0.338, 192.0, 252.0, 64.0, 29.0, 0.0, 10.0, 144.0, 0.0, 0.0, 0.0, 1.7184697085721548E9, 0.0, 2024-06-15 11:41:48.572
34.0, 51890.87115417375, 44311.46166461249, 45978.45476608929, -187500.02235174447, -38868.007226944836, -187500.02235174447, -129639.80491635858, 50903.706360305114, -0.12, 0.928, 0.338, 192.0, 0.0, 0.0, 0.0, 0.0, 0.0, 0.0, 0.0, 0.0, 0.0, 1.7184697085721648E9, 0.0, 2024-06-15 11:41:48.572
35.0, 51856.40476422367, 44533.593301009336, 46119.203700924365, -187500.02235174447, -38274.85898433435, -187500.02235174447, -129262.32865599736, 52846.430581382585, -0.12, 0.928, 0.338, 192.0, 0.0, 0.0, 0.0, 0.0, 0.0, 0.0, 0.0, 0.0, 0.0, 1.718469708572175E9, 0.0, 2024-06-15 11:41:48.572
0.0, 0.0, 0.0, 0.0, 0.0, 0.0, 0.0, 0.0, 0.0, -0.078, 0.93, 0.334, 192.0, 253.0, 144.0, 29.0, 16.0, 10.0, 112.0, 0.0, 0.0, 0.0, 1.7184697086424177E9, 0.0, 2024-06-15 11:41:48.642
1.0, 49829.213300849595, 42738.390593336895, 40909.59321374813, -187500.02235174447, -44074.04143500822, -187500.02235174447, -130636.46920162073, 53540.5863571866, -0.078, 0.93, 0.334, 192.0, 0.0, 0.0, 0.0, 0.0, 0.0, 0.0, 0.0, 0.0, 0.0, 1.718469709130834E9, 0.0, 2024-06-15 11:41:49.130
2.0, 50141.713040079245, 42423.789790128445, 41260.51560169645, -187500.02235174447, -44123.93052863247, -187500.02235174447, -130605.1767593833, 53651.160437007005, -0.078, 0.93, 0.334, 192.0, 0.0, 0.0, 0.0, 0.0, 0.0, 0.0, 0.0, 0.0, 0.0, 1.71846970913091E9, 0.0, 2024-06-15 11:41:49.130
3.0, 50386.35288314258, 42114.732219544916, 45867.00896823513, -187500.02235174447, -39677.408597160415, -187500.02235174447, -129329.96503471912, 54740.96444141441, -0.078, 0.93, 0.334, 192.0, 0.0, 0.0, 0.0, 0.0, 0.0, 0.0, 0.0, 0.0, 0.0, 1.718469709130968E9, 0.0, 2024-06-15 11:41:49.130
4.0, 50034.35761146041, 42198.99829614142, 46039.25151100773, -187500.02235174447, -39022.65894683111, -187500.02235174447, -129248.87290583526, 54504.125357165976, -0.078, 0.93, 0.334, 192.0, 0.0, 0.0, 0.0, 0.0, 0.0, 0.0, 0.0, 0.0, 0.0, 1.71846970913098E9, 0.0, 2024-06-15 11:41:49.130
5.0, 49792.89171610972, 42697.93393587279, 41255.039424304894, -187500.02235174447, -43668.7596045446, -187500.02235174447, -130562.48492747366, 53415.55069870361, -0.078, 0.93, 0.334, 192.0, 0.0, 0.0, 0.0, 0.0, 0.0, 0.0, 0.0, 0.0, 0.0, 1.7184697091309907E9, 0.0, 2024-06-15 11:41:49.130
6.0, 50054.94356810374, 42507.43001788021, 40889.342533271614, -187500.02235174447, -44356.63454015667, -187500.02235174447, -130656.63047511941, 53708.693827234965, -0.078, 0.93, 0.334, 192.0, 0.0, 0.0, 0.0, 0.0, 0.0, 0.0, 0.0, 0.0, 0.0, 1.7184697091310015E9, 0.0, 2024-06-15 11:41:49.131
7.0, 50381.92723774043, 42138.38036517863, 44941.9596722078, -187500.02235174447, -40605.29656473357, -187500.02235174447, -129598.27537516062, 54407.856393796974, -0.078, 0.93, 0.334, 192.0, 0.0, 0.0, 0.0, 0.0, 0.0, 0.0, 0.0, 0.0, 0.0, 1.718469709131012E9, 0.0, 2024-06-15 11:41:49.131
8.0, 50113.30397287655, 42136.458115155474, 46744.09142066138, -187500.02235174447, -38351.88309572734, -187500.02235174447, -129015.36423151067, 54858.73578294943, -0.066, 0.93, 0.33, 192.0, 253.0, 240.0, 29.0, 16.0, 10.0, 80.0, 0.0, 0.0, 0.0, 1.7184697091310225E9, 0.0, 2024-06-15 11:41:49.131
9.0, 49790.768300386466, 42616.41712384429, 41823.556044525634, -187500.02235174447, -43049.99626278833, -187500.02235174447, -130389.21420445612, 53383.699462854805, -0.066, 0.93, 0.33, 192.0, 0.0, 0.0, 0.0, 0.0, 0.0, 0.0, 0.0, 0.0, 0.0, 1.718469709131033E9, 0.0, 2024-06-15 11:41:49.131
10.0, 49991.88929699532, 42589.57267875346, 40680.1525569144, -187500.02235174447, -44425.61202354575, -187500.02235174447, -130643.08531797951, 53783.75098511589, -0.066, 0.93, 0.33, 192.0, 0.0, 0.0, 0.0, 0.0, 0.0, 0.0, 0.0, 0.0, 0.0, 1.7184697091310437E9, 0.0, 2024-06-15 11:41:49.131
11.0, 50345.87387393402, 42170.030435327346, 43951.799744582146, -187500.02235174447, -41562.53237277656, -187500.02235174447, -129854.22520091834, 54089.58990449786, -0.066, 0.93, 0.33, 192.0, 0.0, 0.0, 0.0, 0.0, 0.0, 0.0, 0.0, 0.0, 0.0, 1.718469709131054E9, 0.0, 2024-06-15 11:41:49.131
12.0, 50188.02585459064, 42098.57190830373, 47200.491690694296, -187500.02235174447, -37938.53228551534, -187500.02235174447, -128820.65818556049, 55139.943079941644, -0.066, 0.93, 0.33, 192.0, 0.0, 0.0, 0.0, 0.0, 0.0, 0.0, 0.0, 0.0, 0.0, 1.7184697091310673E9, 0.0, 2024-06-15 11:41:49.131
13.0, 49800.267791779974, 42510.60396559286, 42626.76598152709, -187500.02235174447, -42199.177110097065, -187500.02235174447, -130151.63751264066, 53470.647748785945, -0.066, 0.93, 0.33, 192.0, 0.0, 0.0, 0.0, 0.0, 0.0, 0.0, 0.0, 0.0, 0.0, 1.7184697091310782E9, 0.0, 2024-06-15 11:41:49.131
14.0, 49910.84187160038, 42637.91950201029, 40604.62601239992, -187500.02235174447, -44351.69480463205, -187500.02235174447, -130623.90752123685, 53814.17170931956, -0.066, 0.93, 0.33, 192.0, 0.0, 0.0, 0.0, 0.0, 0.0, 0.0, 0.0, 0.0, 0.0, 1.7184697091310892E9, 0.0, 2024-06-15 11:41:49.131
15.0, 50258.4114978804, 42216.70087775003, 42616.886510477845, -187500.02235174447, -42818.990983842734, -187500.02235174447, -130239.12224043874, 53607.86510799707, -0.066, 0.93, 0.33, 192.0, 0.0, 0.0, 0.0, 0.0, 0.0, 0.0, 0.0, 0.0, 0.0, 1.718469709131101E9, 0.0, 2024-06-15 11:41:49.131
16.0, 50248.7108407868, 42094.70505651296, 46684.79224262146, -187500.02235174447, -38562.5035837297, -187500.02235174447, -128981.50133866089, 54945.90758632512, -0.066, 0.93, 0.33, 192.0, 0.0, 0.0, 0.0, 0.0, 0.0, 0.0, 0.0, 0.0, 0.0, 1.7184697091311116E9, 0.0, 2024-06-15 11:41:49.131
17.0, 49924.8340636294, 42365.96582722257, 44427.0872386798, -187500.02235174447, -40409.38352458281, -187500.02235174447, -129587.50183433318, 54193.01142609256, -0.066, 0.93, 0.33, 192.0, 0.0, 0.0, 0.0, 0.0, 0.0, 0.0, 0.0, 0.0, 0.0, 1.7184697091311228E9, 0.0, 2024-06-15 11:41:49.131
18.0, 49843.764286490004, 42638.32183341048, 41637.09779227946, -187500.02235174447, -43110.18951060647, -187500.02235174447, -130243.36907188524, 54307.34059898146, -0.06, 0.93, 0.33, 192.0, 254.0, 32.0, 29.0, 16.0, 10.0, 80.0, 0.0, 0.0, 0.0, 1.7184697091311336E9, 0.0, 2024-06-15 11:41:49.131
19.0, 50078.85993467092, 42284.33725647179, 41256.089956294294, -187500.02235174447, -43972.139832036475, -187500.02235174447, -130605.31086985003, 53079.46986907362, -0.06, 0.93, 0.33, 192.0, 0.0, 0.0, 0.0, 0.0, 0.0, 0.0, 0.0, 0.0, 0.0, 1.7184697091311443E9, 0.0, 2024-06-15 11:41:49.131
20.0, 50164.75768861266, 42190.236412314945, 43623.363211555865, -187500.02235174447, -41775.522145691175, -187500.02235174447, -130011.02268827232, 53335.240880875695, -0.06, 0.93, 0.33, 192.0, 0.0, 0.0, 0.0, 0.0, 0.0, 0.0, 0.0, 0.0, 0.0, 1.718469709131156E9, 0.0, 2024-06-15 11:41:49.131
21.0, 50065.47123974219, 42335.81332395236, 43447.186761759134, -187500.02235174447, -41762.356968207, -187500.02235174447, -130020.96921455493, 53564.346261542596, -0.06, 0.93, 0.33, 192.0, 0.0, 0.0, 0.0, 0.0, 0.0, 0.0, 0.0, 0.0, 0.0, 1.7184697091311665E9, 0.0, 2024-06-15 11:41:49.131
22.0, 50017.973782774665, 42573.21120181218, 43531.922224989205, -187500.02235174447, -41437.54141778248, -187500.02235174447, -129691.4597977948, 55369.182571075275, -0.06, 0.93, 0.33, 192.0, 0.0, 0.0, 0.0, 0.0, 0.0, 0.0, 0.0, 0.0, 0.0, 1.7184697091311777E9, 0.0, 2024-06-15 11:41:49.131
23.0, 50063.213713552206, 42252.82129678981, 43201.608145428676, -187500.02235174447, -41912.00189733528, -187500.02235174447, -129940.27941707129, 54455.8008856536, -0.06, 0.93, 0.33, 192.0, 0.0, 0.0, 0.0, 0.0, 0.0, 0.0, 0.0, 0.0, 0.0, 1.7184697091311882E9, 0.0, 2024-06-15 11:41:49.131
24.0, 50082.503269017136, 42181.02749359936, 43649.76062175758, -187500.02235174447, -41651.40290873086, -187500.02235174447, -130025.73013612392, 53331.61989827394, -0.06, 0.93, 0.33, 192.0, 0.0, 0.0, 0.0, 0.0, 0.0, 0.0, 0.0, 0.0, 0.0, 1.7184697091311984E9, 0.0, 2024-06-15 11:41:49.131
25.0, 50058.54219896105, 42300.43051247961, 43439.60952038879, -187500.02235174447, -41731.891540514414, -187500.02235174447, -130035.76606938435, 53329.89881395088, -0.06, 0.93, 0.33, 192.0, 0.0, 0.0, 0.0, 0.0, 0.0, 0.0, 0.0, 0.0, 0.0, 1.718469709131209E9, 0.0, 2024-06-15 11:41:49.131
26.0, 50020.54423338702, 42569.32199827695, 43422.68924983612, -187500.02235174447, -41530.45761948319, -187500.02235174447, -129733.99516749325, 55066.58465463933, -0.06, 0.93, 0.33, 192.0, 0.0, 0.0, 0.0, 0.0, 0.0, 0.0, 0.0, 0.0, 0.0, 1.718469709131219E9, 0.0, 2024-06-15 11:41:49.131
27.0, 50047.63454766686, 42305.19143404859, 43321.569957920314, -187500.02235174447, -41685.71283646976, -187500.02235174447, -129810.4381335304, 54836.76401814986, -0.06, 0.93, 0.33, 192.0, 0.0, 0.0, 0.0, 0.0, 0.0, 0.0, 0.0, 0.0, 0.0, 1.7184697091312296E9, 0.0, 2024-06-15 11:41:49.131
28.0, 50086.7724522081, 42172.69029291753, 43436.94966279861, -187500.02235174447, -41828.22755911679, -187500.02235174447, -130035.49784845089, 53342.52754956813, -0.066, 0.928, 0.332, 192.0, 253.0, 240.0, 29.0, 0.0, 10.0, 96.0, 0.0, 0.0, 0.0, 1.71846970913124E9, 0.0, 2024-06-15 11:41:49.131
29.0, 50062.25258854063, 42262.857230050235, 43561.47123115912, -187500.02235174447, -41601.603222084435, -187500.02235174447, -129979.21615591242, 53272.7230516342, -0.066, 0.928, 0.332, 192.0, 0.0, 0.0, 0.0, 0.0, 0.0, 0.0, 0.0, 0.0, 0.0, 1.7184697091312659E9, 0.0, 2024-06-15 11:41:49.131
30.0, 50041.465466197194, 42560.738928406114, 43304.0685420118, -187500.02235174447, -41665.50685948216, -187500.02235174447, -129808.67234571843, 54694.85279260312, -0.066, 0.928, 0.332, 192.0, 0.0, 0.0, 0.0, 0.0, 0.0, 0.0, 0.0, 0.0, 0.0, 1.7184697091312757E9, 0.0, 2024-06-15 11:41:49.131
31.0, 50046.60636742191, 42387.60231585531, 43466.94570385763, -187500.02235174447, -41459.960217471154, -187500.02235174447, -129692.15270187292, 55193.855487567846, -0.066, 0.928, 0.332, 192.0, 0.0, 0.0, 0.0, 0.0, 0.0, 0.0, 0.0, 0.0, 0.0, 1.7184697091312847E9, 0.0, 2024-06-15 11:41:49.131
32.0, 50089.633475498376, 42177.987656353434, 43267.6128468052, -187500.02235174447, -41957.711214746385, -187500.02235174447, -130028.83702860322, 53421.11628307299, -0.066, 0.928, 0.332, 192.0, 0.0, 0.0, 0.0, 0.0, 0.0, 0.0, 0.0, 0.0, 0.0, 1.7184697091312935E9, 0.0, 2024-06-15 11:41:49.131
33.0, 50069.11457408841, 42243.94765424105, 43658.388395117334, -187500.02235174447, -41506.94358431621, -187500.02235174447, -129936.79254493625, 53252.82999906898, -0.066, 0.928, 0.332, 192.0, 0.0, 0.0, 0.0, 0.0, 0.0, 0.0, 0.0, 0.0, 0.0, 1.7184697091313026E9, 0.0, 2024-06-15 11:41:49.131
34.0, 50049.73561164566, 42513.12971271631, 43213.72279092346, -187500.02235174447, -41783.32290450608, -187500.02235174447, -129875.61582036207, 54298.82458434399, -0.066, 0.928, 0.332, 192.0, 0.0, 0.0, 0.0, 0.0, 0.0, 0.0, 0.0, 0.0, 0.0, 1.7184697091313114E9, 0.0, 2024-06-15 11:41:49.131
35.0, 50027.04859102352, 42438.608996702314, 43615.58480448542, -187500.02235174447, -41250.61377890275, -187500.02235174447, -129577.57765979502, 55475.241598515706, -0.066, 0.928, 0.332, 192.0, 0.0, 0.0, 0.0, 0.0, 0.0, 0.0, 0.0, 0.0, 0.0, 1.7184697091313205E9, 0.0, 2024-06-15 11:41:49.131
36.0, 50075.88715265837, 42169.98573183844, 43119.39842932206, -187500.02235174447, -42057.28823629478, -187500.02235174447, -130045.3996712446, 53555.42791550492, -0.066, 0.928, 0.332, 192.0, 0.0, 0.0, 0.0, 0.0, 0.0, 0.0, 0.0, 0.0, 0.0, 1.7184697091313293E9, 0.0, 2024-06-15 11:41:49.131
37.0, 50066.18649556476, 42225.35100285423, 43659.01424396208, -187500.02235174447, -41519.92994784474, -187500.02235174447, -129958.96547543592, 53220.68819054225, -0.066, 0.928, 0.332, 192.0, 0.0, 0.0, 0.0, 0.0, 0.0, 0.0, 0.0, 0.0, 0.0, 1.7184697091313384E9, 0.0, 2024-06-15 11:41:49.131
38.0, 50056.32937625997, 42459.06084287892, 43120.67247875601, -187500.02235174447, -41919.735600916814, -187500.02235174447, -129978.8361762567, 53889.13946022266, -0.066, 0.928, 0.332, 192.0, 0.0, 0.0, 0.0, 0.0, 0.0, 0.0, 0.0, 0.0, 0.0, 1.7184697091313472E9, 0.0, 2024-06-15 11:41:49.131
39.0, 50027.18270149025, 42504.72545680111, 43661.87526725236, -187500.02235174447, -41185.994885682456, -187500.02235174447, -129552.58840949398, 55584.74279460225, -0.07, 0.926, 0.338, 192.0, 253.0, 208.0, 28.0, 240.0, 10.0, 144.0, 0.0, 0.0, 0.0, 1.718469709131356E9, 0.0, 2024-06-15 11:41:49.131
40.0, 50073.696681701746, 42186.57072622427, 43079.99230384735, -187500.02235174447, -42040.479724464385, -187500.02235174447, -129999.82446430023, 53816.38453202064, -0.07, 0.926, 0.338, 192.0, 0.0, 0.0, 0.0, 0.0, 0.0, 0.0, 0.0, 0.0, 0.0, 1.718469709131365E9, 0.0, 2024-06-15 11:41:49.131
41.0, 50068.42167001029, 42211.5152730364, 43632.88505469383, -187500.02235174447, -41553.32345406097, -187500.02235174447, -129949.6224462536, 53232.02052498109, -0.07, 0.926, 0.338, 192.0, 0.0, 0.0, 0.0, 0.0, 0.0, 0.0, 0.0, 0.0, 0.0, 1.7184697091313736E9, 0.0, 2024-06-15 11:41:49.131
42.0, 50067.23702755416, 42397.14651073772, 43121.61125202313, -187500.02235174447, -41940.05333662669, -187500.02235174447, -130012.81082782875, 53585.379253075036, -0.07, 0.926, 0.338, 192.0, 0.0, 0.0, 0.0, 0.0, 0.0, 0.0, 0.0, 0.0, 0.0, 1.7184697091313827E9, 0.0, 2024-06-15 11:41:49.131
43.0, 50037.01746905059, 42543.37162296434, 43648.28540662354, -187500.02235174447, -41191.73928400747, -187500.02235174447, -129557.57284850751, 55549.73996278524, -0.07, 0.926, 0.338, 192.0, 0.0, 0.0, 0.0, 0.0, 0.0, 0.0, 0.0, 0.0, 0.0, 1.7184697091313915E9, 0.0, 2024-06-15 11:41:49.131
44.0, 50071.886190400866, 42208.85541544622, 43148.88038025861, -187500.02235174447, -41900.91543208545, -187500.02235174447, -129901.87912009706, 54184.83068762192, -0.07, 0.926, 0.338, 192.0, 0.0, 0.0, 0.0, 0.0, 0.0, 0.0, 0.0, 0.0, 0.0, 1.7184697091314003E9, 0.0, 2024-06-15 11:41:49.131
45.0, 50077.69764395925, 42195.53377575085, 43547.322576918916, -187500.02235174447, -41650.84411511947, -187500.02235174447, -129953.42224281101, 53238.547234362035, -0.07, 0.926, 0.338, 192.0, 0.0, 0.0, 0.0, 0.0, 0.0, 0.0, 0.0, 0.0, 0.0, 1.7184697091314092E9, 0.0, 2024-06-15 11:41:49.131
46.0, 50078.658768970825, 42341.937701933115, 43176.48478466091, -187500.02235174447, -41915.86874912605, -187500.02235174447, -130025.10428727917, 53355.156285185374, -0.07, 0.926, 0.338, 192.0, 0.0, 0.0, 0.0, 0.0, 0.0, 0.0, 0.0, 0.0, 0.0, 1.7184697091314182E9, 0.0, 2024-06-15 11:41:49.131
47.0, 50051.881379113365, 42570.819565155456, 43575.15049876577, -187500.02235174447, -41293.082093367826, -187500.02235174447, -129602.3880961404, 55358.43138199227, -0.07, 0.926, 0.338, 192.0, 0.0, 0.0, 0.0, 0.0, 0.0, 0.0, 0.0, 0.0, 0.0, 1.7184697091314273E9, 0.0, 2024-06-15 11:41:49.131
48.0, 50075.820097425, 42264.22068646201, 43230.64306147612, -187500.02235174447, -41764.2568664857, -187500.02235174447, -129856.50507885279, 54546.86189256453, -0.07, 0.926, 0.338, 192.0, 0.0, 0.0, 0.0, 0.0, 0.0, 0.0, 0.0, 0.0, 0.0, 1.7184697091314363E9, 0.0, 2024-06-15 11:41:49.131
49.0, 50086.258362085624, 42189.8564326592, 43358.53974324939, -187500.02235174447, -41864.0797572231, -187500.02235174447, -130051.14406956961, 53214.072074183474, -0.066, 0.924, 0.34600000000000003, 192.0, 253.0, 240.0, 28.0, 224.0, 10.0, 208.0, 0.0, 0.0, 0.0, 1.7184697091314452E9, 0.0, 2024-06-15 11:41:49.131
50.0, 50082.30210331704, 42300.09523631278, 43249.5079337964, -187500.02235174447, -41883.615181877045, -187500.02235174447, -130053.78157541533, 53220.59878356443, -0.066, 0.924, 0.34600000000000003, 192.0, 0.0, 0.0, 0.0, 0.0, 0.0, 0.0, 0.0, 0.0, 0.0, 1.718469709131454E9, 0.0, 2024-06-15 11:41:49.131
51.0, 50060.53150421757, 42565.030463341536, 43434.73684009753, -187500.02235174447, -41486.6929038397, -187500.02235174447, -129708.55888230311, 55036.94624149159, -0.066, 0.924, 0.34600000000000003, 192.0, 0.0, 0.0, 0.0, 0.0, 0.0, 0.0, 0.0, 0.0, 0.0, 1.7184697091314628E9, 0.0, 2024-06-15 11:41:49.131
52.0, 50063.75015541913, 42324.23512032451, 43435.58620638683, -187500.02235174447, -41502.36147670287, -187500.02235174447, -129712.17986490487, 54996.66839798313, -0.066, 0.924, 0.34600000000000003, 192.0, 0.0, 0.0, 0.0, 0.0, 0.0, 0.0, 0.0, 0.0, 0.0, 1.7184697091314716E9, 0.0, 2024-06-15 11:41:49.131
53.0, 50091.53337377708, 42184.49201398993, 43259.54386705683, -187500.02235174447, -41955.341929834125, -187500.02235174447, -130032.36860422714, 53309.67048521883, -0.066, 0.924, 0.34600000000000003, 192.0, 0.0, 0.0, 0.0, 0.0, 0.0, 0.0, 0.0, 0.0, 0.0, 1.7184697091314805E9, 0.0, 2024-06-15 11:41:49.131
54.0, 50089.00762665363, 42267.908724297136, 43370.3861678107, -187500.02235174447, -41779.65721841541, -187500.02235174447, -130015.71655460795, 53177.594027232415, -0.066, 0.924, 0.34600000000000003, 192.0, 0.0, 0.0, 0.0, 0.0, 0.0, 0.0, 0.0, 0.0, 0.0, 1.7184697091314893E9, 0.0, 2024-06-15 11:41:49.131
55.0, 50080.20103933824, 42540.15297176278, 43309.9246990591, -187500.02235174447, -41657.50493496715, -187500.02235174447, -129786.05238032967, 54653.792638038714, -0.066, 0.924, 0.34600000000000003, 192.0, 0.0, 0.0, 0.0, 0.0, 0.0, 0.0, 0.0, 0.0, 0.0, 1.718469709131498E9, 0.0, 2024-06-15 11:41:49.131
56.0, 50070.835658411466, 42386.19415595462, 43612.3438015394, -187500.02235174447, -41272.13850881321, -187500.02235174447, -129592.41921811334, 55357.13498081386, -0.066, 0.924, 0.34600000000000003, 192.0, 0.0, 0.0, 0.0, 0.0, 0.0, 0.0, 0.0, 0.0, 0.0, 1.7184697091315067E9, 0.0, 2024-06-15 11:41:49.131
57.0, 50099.982333181186, 42175.79718539681, 43127.04272592577, -187500.02235174447, -42061.535067741286, -187500.02235174447, -130051.18877305851, 53416.824748137566, -0.066, 0.924, 0.34600000000000003, 192.0, 0.0, 0.0, 0.0, 0.0, 0.0, 0.0, 0.0, 0.0, 0.0, 1.7184697091315155E9, 0.0, 2024-06-15 11:41:49.131
58.0, 50085.520754518606, 42243.1206396962, 43450.897151338715, -187500.02235174447, -41711.86437748246, -187500.02235174447, -129993.85654853065, 53165.546436971, -0.066, 0.924, 0.34600000000000003, 192.0, 0.0, 0.0, 0.0, 0.0, 0.0, 0.0, 0.0, 0.0, 0.0, 1.7184697091315243E9, 0.0, 2024-06-15 11:41:49.131
59.0, 50086.37012080791, 42488.29692462646, 43168.30404619027, -187500.02235174447, -41840.051631933646, -187500.02235174447, -129894.83832059364, 54223.566260762964, -0.066, 0.92, 0.342, 192.0, 253.0, 240.0, 28.0, 192.0, 10.0, 176.0, 0.0, 0.0, 0.0, 1.7184697091315331E9, 0.0, 2024-06-15 11:41:49.131
60.0, 50058.98923385015, 42436.664394934705, 43738.027660611595, -187500.02235174447, -41106.623841121655, -187500.02235174447, -129510.41066770682, 55600.47842269879, -0.066, 0.92, 0.342, 192.0, 0.0, 0.0, 0.0, 0.0, 0.0, 0.0, 0.0, 0.0, 0.0, 1.718469709131542E9, 0.0, 2024-06-15 11:41:49.131
61.0, 50090.72871097669, 42166.56591493677, 43116.313888587225, -187500.02235174447, -42021.88307307757, -187500.02235174447, -129978.76912102332, 53657.84360859914, -0.066, 0.92, 0.342, 192.0, 0.0, 0.0, 0.0, 0.0, 0.0, 0.0, 0.0, 0.0, 0.0, 1.7184697091315513E9, 0.0, 2024-06-15 11:41:49.131
62.0, 50087.06302488602, 42224.3675260982, 43520.94751846165, -187500.02235174447, -41643.400984215856, -187500.02235174447, -129941.19583859395, 53200.14693738782, -0.066, 0.92, 0.342, 192.0, 0.0, 0.0, 0.0, 0.0, 0.0, 0.0, 0.0, 0.0, 0.0, 1.71846970913156E9, 0.0, 2024-06-15 11:41:49.131
63.0, 50098.373007580405, 42430.785886142956, 43124.695792757964, -187500.02235174447, -41908.87265311154, -187500.02235174447, -129924.38732676356, 53867.726489034474, -0.066, 0.92, 0.342, 192.0, 0.0, 0.0, 0.0, 0.0, 0.0, 0.0, 0.0, 0.0, 0.0, 1.718469709131569E9, 0.0, 2024-06-15 11:41:49.131
64.0, 50066.47706824268, 42499.1822241762, 43800.99252474219, -187500.02235174447, -41014.60170919916, -187500.02235174447, -129453.86075423489, 55697.037958745714, -0.066, 0.92, 0.342, 192.0, 0.0, 0.0, 0.0, 0.0, 0.0, 0.0, 0.0, 0.0, 0.0, 1.7184697091315775E9, 0.0, 2024-06-15 11:41:49.131
65.0, 50098.14949013585, 42189.83408091475, 43138.35270862016, -187500.02235174447, -41932.58785397862, -187500.02235174447, -129918.08413482716, 53949.84679816327, -0.066, 0.92, 0.342, 192.0, 0.0, 0.0, 0.0, 0.0, 0.0, 0.0, 0.0, 0.0, 0.0, 1.7184697091315866E9, 0.0, 2024-06-15 11:41:49.131
66.0, 50088.13590861987, 42208.5648427683, 43509.03403866697, -187500.02235174447, -41656.275589022116, -187500.02235174447, -129927.38246052057, 53219.34708587493, -0.066, 0.92, 0.342, 192.0, 0.0, 0.0, 0.0, 0.0, 0.0, 0.0, 0.0, 0.0, 0.0, 1.7184697091315956E9, 0.0, 2024-06-15 11:41:49.131
67.0, 50105.74908325065, 42374.794766282415, 43088.15069057354, -187500.02235174447, -41968.21653464038, -187500.02235174447, -129987.17337693852, 53535.91484259544, -0.066, 0.92, 0.342, 192.0, 0.0, 0.0, 0.0, 0.0, 0.0, 0.0, 0.0, 0.0, 0.0, 1.7184697091316044E9, 0.0, 2024-06-15 11:41:49.131
68.0, 50071.95324563423, 42537.38135545032, 43770.32593134951, -187500.02235174447, -41047.481125292914, -187500.02235174447, -129468.47879510866, 55613.46478622733, -0.066, 0.92, 0.342, 192.0, 0.0, 0.0, 0.0, 0.0, 0.0, 0.0, 0.0, 0.0, 0.0, 1.7184697091316135E9, 0.0, 2024-06-15 11:41:49.131
69.0, 50094.68496974528, 42216.61147077221, 43245.81989596128, -187500.02235174447, -41748.744755833715, -187500.02235174447, -129819.42353480143, 54328.28418353608, -0.068, 0.916, 0.34400000000000003, 192.0, 253.0, 224.0, 28.0, 160.0, 10.0, 192.0, 0.0, 0.0, 0.0, 1.7184697091316226E9, 0.0, 2024-06-15 11:41:49.131
70.0, 50097.9259726913, 42201.97107815398, 43419.56000561238, -187500.02235174447, -41746.77780232165, -187500.02235174447, -129951.0753096432, 53220.21880390868, -0.068, 0.916, 0.34400000000000003, 192.0, 0.0, 0.0, 0.0, 0.0, 0.0, 0.0, 0.0, 0.0, 0.0, 1.7184697091316314E9, 0.0, 2024-06-15 11:41:49.131
71.0, 50102.64219077137, 42321.597614478786, 43150.7355750484, -187500.02235174447, -41924.20594980788, -187500.02235174447, -129982.6359728141, 53332.84924421898, -0.068, 0.916, 0.34400000000000003, 192.0, 0.0, 0.0, 0.0, 0.0, 0.0, 0.0, 0.0, 0.0, 0.0, 1.7184697091316404E9, 0.0, 2024-06-15 11:41:49.131
72.0, 50078.167030592806, 42546.52321893254, 43697.056913025015, -187500.02235174447, -41137.111620558695, -187500.02235174447, -129493.37863843187, 55397.703397000245, -0.068, 0.916, 0.34400000000000003, 192.0, 0.0, 0.0, 0.0, 0.0, 0.0, 0.0, 0.0, 0.0, 0.0, 1.7184697091316493E9, 0.0, 2024-06-15 11:41:49.131
73.0, 50089.05233014254, 42253.715366568016, 43456.61919791927, -187500.02235174447, -41454.0370051905, -187500.02235174447, -129654.78058514364, 54765.50665682634, -0.068, 0.916, 0.34400000000000003, 192.0, 0.0, 0.0, 0.0, 0.0, 0.0, 0.0, 0.0, 0.0, 0.0, 1.718469709131658E9, 0.0, 2024-06-15 11:41:49.131
74.0, 50103.55861229404, 42186.74954017992, 43312.11517001571, -187500.02235174447, -41841.01275694522, -187500.02235174447, -129970.56603080823, 53220.509376586604, -0.068, 0.916, 0.34400000000000003, 192.0, 0.0, 0.0, 0.0, 0.0, 0.0, 0.0, 0.0, 0.0, 0.0, 1.718469709131667E9, 0.0, 2024-06-15 11:41:49.131
75.0, 50106.419635584316, 42288.449977451564, 43208.47013097646, -187500.02235174447, -41879.256591708254, -187500.02235174447, -130008.11696149314, 53155.644614177305, -0.068, 0.916, 0.34400000000000003, 192.0, 0.0, 0.0, 0.0, 0.0, 0.0, 0.0, 0.0, 0.0, 0.0, 1.718469709131676E9, 0.0, 2024-06-15 11:41:49.131
76.0, 50091.28750458807, 42545.89737008779, 43505.94949793214, -187500.02235174447, -41373.79424259594, -187500.02235174447, -129636.94389306831, 54968.63931043617, -0.068, 0.916, 0.34400000000000003, 192.0, 0.0, 0.0, 0.0, 0.0, 0.0, 0.0, 0.0, 0.0, 0.0, 1.7184697091316848E9, 0.0, 2024-06-15 11:41:49.131
77.0, 50083.129117861885, 42322.44698076809, 43625.44192379021, -187500.02235174447, -41232.195941471575, -187500.02235174447, -129574.51547080463, 55110.036445860445, -0.068, 0.916, 0.34400000000000003, 192.0, 0.0, 0.0, 0.0, 0.0, 0.0, 0.0, 0.0, 0.0, 0.0, 1.7184697091316936E9, 0.0, 2024-06-15 11:41:49.131
78.0, 50089.94639992075, 42178.2558772869, 43215.577985713244, -187500.02235174447, -41932.72196444535, -187500.02235174447, -129990.70495256246, 53260.429592183784, -0.068, 0.916, 0.34400000000000003, 192.0, 0.0, 0.0, 0.0, 0.0, 0.0, 0.0, 0.0, 0.0, 0.0, 1.7184697091317036E9, 0.0, 2024-06-15 11:41:49.131
79.0, 50080.24574282715, 42247.3227676538, 43324.00629806594, -187500.02235174447, -41789.5143377202, -187500.02235174447, -129976.84687100016, 53070.55152303595, -0.068, 0.916, 0.34400000000000003, 192.0, 0.0, 0.0, 0.0, 0.0, 0.0, 0.0, 0.0, 0.0, 0.0, 1.7184697091317124E9, 0.0, 2024-06-15 11:41:49.131
80.0, 50086.16895510781, 42496.74588403057, 43372.19665911158, -187500.02235174447, -41572.6130095259, -187500.02235174447, -129730.3741848915, 54516.97761022778, -0.068, 0.916, 0.35000000000000003, 192.0, 253.0, 224.0, 28.0, 160.0, 10.0, 240.0, 0.0, 0.0, 0.0, 1.7184697091317213E9, 0.0, 2024-06-15 11:41:49.131
81.0, 50072.40028052334, 42375.01828372697, 43812.34721092549, -187500.02235174447, -41024.19060757048, -187500.02235174447, -129490.40585641931, 55391.266094597115, -0.068, 0.916, 0.35000000000000003, 192.0, 0.0, 0.0, 0.0, 0.0, 0.0, 0.0, 0.0, 0.0, 0.0, 1.7184697091317303E9, 0.0, 2024-06-15 11:41:49.131
82.0, 50099.35648433644, 42165.98476958094, 43178.58584863971, -187500.02235174447, -41968.84238348513, -187500.02235174447, -129983.66415305903, 53376.14457322891, -0.068, 0.916, 0.35000000000000003, 192.0, 0.0, 0.0, 0.0, 0.0, 0.0, 0.0, 0.0, 0.0, 0.0, 1.7184697091317394E9, 0.0, 2024-06-15 11:41:49.131
83.0, 50086.03484464107, 42231.631843046176, 43417.16836895566, -187500.02235174447, -41736.093668472015, -187500.02235174447, -129960.1724696365, 53029.69253417165, -0.068, 0.916, 0.35000000000000003, 192.0, 0.0, 0.0, 0.0, 0.0, 0.0, 0.0, 0.0, 0.0, 0.0, 1.7184697091317482E9, 0.0, 2024-06-15 11:41:49.131
84.0, 50104.09505416096, 42466.90630518273, 43235.49339002292, -187500.02235174447, -41790.85544238752, -187500.02235174447, -129859.54491609872, 54042.96416556408, -0.068, 0.916, 0.35000000000000003, 192.0, 0.0, 0.0, 0.0, 0.0, 0.0, 0.0, 0.0, 0.0, 0.0, 1.718469709131757E9, 0.0, 2024-06-15 11:41:49.131
85.0, 50070.679196200275, 42438.25136879103, 43981.438157729885, -187500.02235174447, -40861.62637014704, -187500.02235174447, -129409.20196881318, 55600.47842269879, -0.068, 0.916, 0.35000000000000003, 192.0, 0.0, 0.0, 0.0, 0.0, 0.0, 0.0, 0.0, 0.0, 0.0, 1.7184697091317658E9, 0.0, 2024-06-15 11:41:49.131
86.0, 50096.830737212986, 42166.744728892416, 43236.29805282332, -187500.02235174447, -41888.979600546314, -187500.02235174447, -129919.96168136141, 53623.86895702708, -0.068, 0.916, 0.35000000000000003, 192.0, 0.0, 0.0, 0.0, 0.0, 0.0, 0.0, 0.0, 0.0, 0.0, 1.7184697091317747E9, 0.0, 2024-06-15 11:41:49.131
87.0, 50081.11746086091, 42214.979793426966, 43505.301297342936, -187500.02235174447, -41670.78187117361, -187500.02235174447, -129912.54090220225, 53047.19395008015, -0.068, 0.916, 0.35000000000000003, 192.0, 0.0, 0.0, 0.0, 0.0, 0.0, 0.0, 0.0, 0.0, 0.0, 1.7184697091317835E9, 0.0, 2024-06-15 11:41:49.131
88.0, 50115.58385081099, 42415.43023770216, 43195.93080233703, -187500.02235174447, -41871.455832893356, -187500.02235174447, -129898.30284098421, 53665.554960436224, -0.068, 0.916, 0.35000000000000003, 192.0, 0.0, 0.0, 0.0, 0.0, 0.0, 0.0, 0.0, 0.0, 0.0, 1.7184697091317928E9, 0.0, 2024-06-15 11:41:49.131
89.0, 50085.990141152164, 42502.66909631123, 44063.804336047695, -187500.02235174447, -40771.012398125225, -187500.02235174447, -129353.277904186, 55655.86604545904, -0.068, 0.916, 0.35000000000000003, 192.0, 0.0, 0.0, 0.0, 0.0, 0.0, 0.0, 0.0, 0.0, 0.0, 1.7184697091318016E9, 0.0, 2024-06-15 11:41:49.131
90.0, 50099.31178084753, 42191.46575825998, 43349.397879767166, -187500.02235174447, -41711.774970504644, -187500.02235174447, -129823.84918020359, 53946.382277772704, -0.07, 0.924, 0.358, 192.0, 253.0, 208.0, 28.0, 224.0, 11.0, 48.0, 0.0, 0.0, 0.0, 1.7184697091318104E9, 0.0, 2024-06-15 11:41:49.131
91.0, 50084.49257427366, 42211.55997652531, 43465.090509067835, -187500.02235174447, -41718.771066519155, -187500.02235174447, -129948.66132124202, 53004.502118170516, -0.07, 0.924, 0.358, 192.0, 0.0, 0.0, 0.0, 0.0, 0.0, 0.0, 0.0, 0.0, 0.0, 1.7184697091318195E9, 0.0, 2024-06-15 11:41:49.131
92.0, 50110.28648737508, 42351.05721367088, 43185.380778954124, -187500.02235174447, -41908.58208043362, -187500.02235174447, -129938.11129785911, 53347.91431998186, -0.07, 0.924, 0.358, 192.0, 0.0, 0.0, 0.0, 0.0, 0.0, 0.0, 0.0, 0.0, 0.0, 1.7184697091318283E9, 0.0, 2024-06-15 11:41:49.131
93.0, 50089.834641198475, 42523.81384656594, 44007.41088478695, -187500.02235174447, -40838.9393495249, -187500.02235174447, -129396.70734366267, 55511.518479766666, -0.07, 0.924, 0.358, 192.0, 0.0, 0.0, 0.0, 0.0, 0.0, 0.0, 0.0, 0.0, 0.0, 1.718469709131841E9, 0.0, 2024-06-15 11:41:49.131
94.0, 50091.2204493547, 42209.83889220225, 43516.477169570586, -187500.02235174447, -41470.800813531976, -187500.02235174447, -129716.53845507366, 54337.71661969622, -0.07, 0.924, 0.358, 192.0, 0.0, 0.0, 0.0, 0.0, 0.0, 0.0, 0.0, 0.0, 0.0, 1.71846970913185E9, 0.0, 2024-06-15 11:41:49.131
95.0, 50073.85314391293, 42192.337476293746, 43427.8525028053, -187500.02235174447, -41742.374508663954, -187500.02235174447, -129935.87612341359, 53026.29506901444, -0.07, 0.924, 0.358, 192.0, 0.0, 0.0, 0.0, 0.0, 0.0, 0.0, 0.0, 0.0, 0.0, 1.7184697091318588E9, 0.0, 2024-06-15 11:41:49.131
96.0, 50103.08922566047, 42308.54419571689, 43197.629534915635, -187500.02235174447, -41900.803673363174, -187500.02235174447, -129971.01306569733, 53111.8351950449, -0.07, 0.924, 0.358, 192.0, 0.0, 0.0, 0.0, 0.0, 0.0, 0.0, 0.0, 0.0, 0.0, 1.7184697091318676E9, 0.0, 2024-06-15 11:41:49.131
97.0, 50087.08537663047, 42524.14912273278, 43896.27801135516, -187500.02235174447, -40968.04302549875, -187500.02235174447, -129444.78594598603, 55257.02151739854, -0.07, 0.924, 0.358, 192.0, 0.0, 0.0, 0.0, 0.0, 0.0, 0.0, 0.0, 0.0, 0.0, 1.7184697091318767E9, 0.0, 2024-06-15 11:41:49.131
98.0, 50076.31183580302, 42239.74552628345, 43760.669977744816, -187500.02235174447, -41136.351661247216, -187500.02235174447, -129534.46114474072, 54813.22763123842, -0.07, 0.924, 0.358, 192.0, 0.0, 0.0, 0.0, 0.0, 0.0, 0.0, 0.0, 0.0, 0.0, 1.7184697091318855E9, 0.0, 2024-06-15 11:41:49.131
99.0, 50075.306007302526, 42163.07904280174, 43363.6359409852, -187500.02235174447, -41769.308360732604, -187500.02235174447, -129914.70902141441, 53088.45527034465, -0.07, 0.924, 0.358, 192.0, 0.0, 0.0, 0.0, 0.0, 0.0, 0.0, 0.0, 0.0, 0.0, 1.7184697091318948E9, 0.0, 2024-06-15 11:41:49.131
100.0, 50101.88223145989, 42262.81252656133, 43250.44670706352, -187500.02235174447, -41827.91463469442, -187500.02235174447, -129962.02766442629, 52979.64697833622, -0.06, 0.924, 0.34800000000000003, 192.0, 254.0, 32.0, 28.0, 224.0, 10.0, 224.0, 0.0, 0.0, 0.0, 1.718469709131904E9, 0.0, 2024-06-15 11:41:49.131
101.0, 50107.78309199609, 42517.689468585195, 43690.57490713298, -187500.02235174447, -41192.43218808558, -187500.02235174447, -129561.46205204274, 54853.28195730233, -0.06, 0.924, 0.34800000000000003, 192.0, 0.0, 0.0, 0.0, 0.0, 0.0, 0.0, 0.0, 0.0, 0.0, 1.7184697091319127E9, 0.0, 2024-06-15 11:41:49.131
102.0, 50080.759832949625, 42302.218652036034, 43950.548046892654, -187500.02235174447, -40867.10254753859, -187500.02235174447, -129421.83070443044, 55207.691217385676, -0.06, 0.924, 0.34800000000000003, 192.0, 0.0, 0.0, 0.0, 0.0, 0.0, 0.0, 0.0, 0.0, 0.0, 1.7184697091319215E9, 0.0, 2024-06-15 11:41:49.131
103.0, 50076.825925925485, 42137.732164589426, 43266.24939039342, -187500.02235174447, -41826.08179164908, -187500.02235174447, -129937.418393781, 53162.30543402499, -0.06, 0.924, 0.34800000000000003, 192.0, 0.0, 0.0, 0.0, 0.0, 0.0, 0.0, 0.0, 0.0, 0.0, 1.7184697091319304E9, 0.0, 2024-06-15 11:41:49.131
104.0, 50076.982388136676, 42221.46179931901, 43300.53696638787, -187500.02235174447, -41764.50273567471, -187500.02235174447, -129954.71864398941, 52898.487794219, -0.06, 0.924, 0.34800000000000003, 192.0, 0.0, 0.0, 0.0, 0.0, 0.0, 0.0, 0.0, 0.0, 0.0, 1.718469709131939E9, 0.0, 2024-06-15 11:41:49.131
105.0, 50103.17863263829, 42483.93833445768, 43484.98356163306, -187500.02235174447, -41427.170208355215, -187500.02235174447, -129674.1595475864, 54401.284980927114, -0.06, 0.924, 0.34800000000000003, 192.0, 0.0, 0.0, 0.0, 0.0, 0.0, 0.0, 0.0, 0.0, 0.0, 1.7184697091319475E9, 0.0, 2024-06-15 11:41:49.131
106.0, 50076.15537359183, 42379.22041168457, 44092.28045848375, -187500.02235174447, -40674.184641144835, -187500.02235174447, -129346.30415991595, 55505.25999131918, -0.06, 0.924, 0.34800000000000003, 192.0, 0.0, 0.0, 0.0, 0.0, 0.0, 0.0, 0.0, 0.0, 0.0, 1.7184697091319563E9, 0.0, 2024-06-15 11:41:49.131
107.0, 50079.10580385993, 42142.33662394722, 43241.99774765942, -187500.02235174447, -41805.115855350006, -187500.02235174447, -129914.2172830364, 53351.64706130589, -0.06, 0.924, 0.34800000000000003, 192.0, 0.0, 0.0, 0.0, 0.0, 0.0, 0.0, 0.0, 0.0, 0.0, 1.7184697091319659E9, 0.0, 2024-06-15 11:41:49.131
108.0, 50079.06110037102, 42218.10903765071, 43318.82069335231, -187500.02235174447, -41740.76518306317, -187500.02235174447, -129971.9741907089, 52853.51608437492, -0.06, 0.924, 0.34800000000000003, 192.0, 0.0, 0.0, 0.0, 0.0, 0.0, 0.0, 0.0, 0.0, 0.0, 1.7184697091319747E9, 0.0, 2024-06-15 11:41:49.131
109.0, 50113.37102810991, 42438.005499602026, 43290.70219882753, -187500.02235174447, -41657.21436228924, -187500.02235174447, -129801.3409735371, 53947.365754528735, -0.06, 0.924, 0.34800000000000003, 192.0, 0.0, 0.0, 0.0, 0.0, 0.0, 0.0, 0.0, 0.0, 0.0, 1.7184697091319835E9, 0.0, 2024-06-15 11:41:49.131
110.0, 50073.406109023825, 42427.52253145249, 44204.55327088276, -187500.02235174447, -40535.69323249975, -187500.02235174447, -129267.60366768882, 55718.04859853371, -0.062, 0.928, 0.34600000000000003, 192.0, 254.0, 16.0, 29.0, 0.0, 10.0, 208.0, 0.0, 0.0, 0.0, 1.7184697091319923E9, 0.0, 2024-06-15 11:41:49.131
111.0, 50074.747213691146, 42130.37844066363, 43307.734228102476, -187500.02235174447, -41681.354246300965, -187500.02235174447, -129830.4429448179, 53663.7668208798, -0.062, 0.928, 0.34600000000000003, 192.0, 0.0, 0.0, 0.0, 0.0, 0.0, 0.0, 0.0, 0.0, 0.0, 1.7184697091320012E9, 0.0, 2024-06-15 11:41:49.132
112.0, 50063.86191414141, 42187.420092513574, 43346.045118098875, -187500.02235174447, -41705.42707507934, -187500.02235174447, -129940.14530660455, 52868.33529094879, -0.062, 0.928, 0.34600000000000003, 192.0, 0.0, 0.0, 0.0, 0.0, 0.0, 0.0, 0.0, 0.0, 0.0, 1.71846970913201E9, 0.0, 2024-06-15 11:41:49.132
113.0, 50111.15820540884, 42393.793749069424, 43157.552857107265, -187500.02235174447, -41811.2178815863, -187500.02235174447, -129887.17167224547, 53542.0392205762, -0.062, 0.928, 0.34600000000000003, 192.0, 0.0, 0.0, 0.0, 0.0, 0.0, 0.0, 0.0, 0.0, 0.0, 1.7184697091320188E9, 0.0, 2024-06-15 11:41:49.132
114.0, 50072.69085320125, 42489.52627057151, 44236.58332068722, -187500.02235174447, -40491.369723244876, -187500.02235174447, -129223.34721366731, 55763.98143338936, -0.062, 0.928, 0.34600000000000003, 192.0, 0.0, 0.0, 0.0, 0.0, 0.0, 0.0, 0.0, 0.0, 0.0, 1.7184697091320279E9, 0.0, 2024-06-15 11:41:49.132
115.0, 50070.38862352236, 42154.56302816427, 43456.66390140819, -187500.02235174447, -41452.67354877872, -187500.02235174447, -129706.92720495787, 54066.12057281978, -0.062, 0.928, 0.34600000000000003, 192.0, 0.0, 0.0, 0.0, 0.0, 0.0, 0.0, 0.0, 0.0, 0.0, 1.7184697091320364E9, 0.0, 2024-06-15 11:41:49.132
116.0, 50053.73657390316, 42169.13636554914, 43346.5815599658, -187500.02235174447, -41681.62246723443, -187500.02235174447, -129908.3164225002, 52900.63356168671, -0.062, 0.928, 0.34600000000000003, 192.0, 0.0, 0.0, 0.0, 0.0, 0.0, 0.0, 0.0, 0.0, 0.0, 1.7184697091320455E9, 0.0, 2024-06-15 11:41:49.132
117.0, 50100.22820237019, 42324.86096916926, 43089.760016174325, -187500.02235174447, -41875.85912655105, -187500.02235174447, -129944.90622817352, 53217.1119114294, -0.062, 0.928, 0.34600000000000003, 192.0, 0.0, 0.0, 0.0, 0.0, 0.0, 0.0, 0.0, 0.0, 0.0, 1.7184697091320543E9, 0.0, 2024-06-15 11:41:49.132
118.0, 50074.031957868574, 42507.899404513766, 44110.698295914925, -187500.02235174447, -40621.36746899694, -187500.02235174447, -129300.08075238238, 55580.76418408921, -0.062, 0.928, 0.34600000000000003, 192.0, 0.0, 0.0, 0.0, 0.0, 0.0, 0.0, 0.0, 0.0, 0.0, 1.718469709132084E9, 0.0, 2024-06-15 11:41:49.132
119.0, 50060.79972515103, 42178.85937438719, 43659.505982340095, -187500.02235174447, -41167.15236510663, -187500.02235174447, -129575.23072662721, 54523.25845041972, -0.062, 0.928, 0.34600000000000003, 192.0, 0.0, 0.0, 0.0, 0.0, 0.0, 0.0, 0.0, 0.0, 0.0, 1.7184697091321003E9, 0.0, 2024-06-15 11:41:49.132
120.0, 50050.272053512585, 42143.11893500316, 43292.57974536178, -187500.02235174447, -41713.31724087206, -187500.02235174447, -129921.79452440674, 52932.14952136869, -0.062, 0.928, 0.34600000000000003, 192.0, 0.0, 0.0, 0.0, 0.0, 0.0, 0.0, 0.0, 0.0, 0.0, 1.7184697091321156E9, 0.0, 2024-06-15 11:41:49.132
121.0, 50090.08051038749, 42282.39265470418, 43133.167103906526, -187500.02235174447, -41817.252852589234, -187500.02235174447, -129932.88098965658, 53031.748894661534, -0.07, 0.926, 0.334, 192.0, 253.0, 208.0, 28.0, 240.0, 10.0, 112.0, 0.0, 0.0, 0.0, 1.7184697096109152E9, 0.0, 2024-06-15 11:41:49.610
122.0, 50090.125213876396, 42526.80898032296, 43949.67632885889, -187500.02235174447, -40794.12410189201, -187500.02235174447, -129384.3915324678, 55276.26636937456, -0.07, 0.926, 0.334, 192.0, 0.0, 0.0, 0.0, 0.0, 0.0, 0.0, 0.0, 0.0, 0.0, 1.7184697096110845E9, 0.0, 2024-06-15 11:41:49.611
123.0, 50064.264245541606, 42235.54339832585, 43897.66381951139, -187500.02235174447, -40845.64487286149, -187500.02235174447, -129429.8996841788, 54990.007578135446, -0.07, 0.926, 0.334, 192.0, 0.0, 0.0, 0.0, 0.0, 0.0, 0.0, 0.0, 0.0, 0.0, 1.7184697096110957E9, 0.0, 2024-06-15 11:41:49.611
124.0, 50047.254568011114, 42113.257004410865, 43270.607980562214, -187500.02235174447, -41695.94993543028, -187500.02235174447, -129890.97146880288, 53027.97144984859, -0.07, 0.926, 0.334, 192.0, 0.0, 0.0, 0.0, 0.0, 0.0, 0.0, 0.0, 0.0, 0.0, 1.7184697096111052E9, 0.0, 2024-06-15 11:41:49.611
125.0, 50078.05527187053, 42232.74943026894, 43190.47697668993, -187500.02235174447, -41731.53391260313, -187500.02235174447, -129915.0666493257, 52897.0349308294, -0.07, 0.926, 0.334, 192.0, 0.0, 0.0, 0.0, 0.0, 0.0, 0.0, 0.0, 0.0, 0.0, 1.7184697096111145E9, 0.0, 2024-06-15 11:41:49.611
126.0, 50099.04355991406, 42500.12099744332, 43771.35411159445, -187500.02235174447, -40975.15088023554, -187500.02235174447, -129449.21159138819, 54884.48499256194, -0.07, 0.926, 0.334, 192.0, 0.0, 0.0, 0.0, 0.0, 0.0, 0.0, 0.0, 0.0, 0.0, 1.718469709611124E9, 0.0, 2024-06-15 11:41:49.611
127.0, 50065.06890834199, 42292.89797459817, 44117.82850239617, -187500.02235174447, -40530.35116557493, -187500.02235174447, -129282.02054286249, 55406.30881861554, -0.07, 0.926, 0.334, 192.0, 0.0, 0.0, 0.0, 0.0, 0.0, 0.0, 0.0, 0.0, 0.0, 1.718469709611133E9, 0.0, 2024-06-15 11:41:49.611
128.0, 50058.318681516495, 42106.2385566519, 43228.16201784158, -187500.02235174447, -41671.45242350727, -187500.02235174447, -129879.01328551928, 53165.25586429309, -0.07, 0.926, 0.334, 192.0, 0.0, 0.0, 0.0, 0.0, 0.0, 0.0, 0.0, 0.0, 0.0, 1.7184697096111424E9, 0.0, 2024-06-15 11:41:49.611
129.0, 50072.221466567695, 42208.22956660147, 43233.973471399964, -187500.02235174447, -41643.62450166041, -187500.02235174447, -129911.60212893512, 52819.00499093592, -0.07, 0.926, 0.334, 192.0, 0.0, 0.0, 0.0, 0.0, 0.0, 0.0, 0.0, 0.0, 0.0, 1.7184697096111517E9, 0.0, 2024-06-15 11:41:49.611
130.0, 50102.61983902691, 42471.86839245181, 43550.11654497583, -187500.02235174447, -41194.19797589755, -187500.02235174447, -129566.02180791162, 54422.4967864152, -0.07, 0.926, 0.334, 192.0, 0.0, 0.0, 0.0, 0.0, 0.0, 0.0, 0.0, 0.0, 0.0, 1.7184697096111605E9, 0.0, 2024-06-15 11:41:49.611
131.0, 50059.25745478362, 42365.988178967025, 44316.22258618147, -187500.02235174447, -40260.00681638799, -187500.02235174447, -129145.49608772948, 55747.5081977258, -0.07, 0.93, 0.336, 192.0, 253.0, 208.0, 29.0, 16.0, 10.0, 128.0, 0.0, 0.0, 0.0, 1.7184697096111698E9, 0.0, 2024-06-15 11:41:49.611
132.0, 50056.642300682346, 42101.61174554965, 43319.24537649696, -187500.02235174447, -41504.283726726026, -187500.02235174447, -129764.37118820801, 53464.366908594006, -0.07, 0.93, 0.336, 192.0, 0.0, 0.0, 0.0, 0.0, 0.0, 0.0, 0.0, 0.0, 0.0, 1.7184697096111789E9, 0.0, 2024-06-15 11:41:49.611
133.0, 50054.3624227479, 42182.815633155784, 43316.02672529539, -187500.02235174447, -41516.82305536545, -187500.02235174447, -129856.14745094151, 52821.73190375947, -0.07, 0.93, 0.336, 192.0, 0.0, 0.0, 0.0, 0.0, 0.0, 0.0, 0.0, 0.0, 0.0, 1.7184697096111877E9, 0.0, 2024-06-15 11:41:49.611
134.0, 50105.145586150364, 42431.99288034355, 43345.59808320976, -187500.02235174447, -41394.64842017274, -187500.02235174447, -129687.95057391532, 53940.302603280856, -0.07, 0.93, 0.336, 192.0, 0.0, 0.0, 0.0, 0.0, 0.0, 0.0, 0.0, 0.0, 0.0, 1.7184697096111968E9, 0.0, 2024-06-15 11:41:49.611
135.0, 50060.0174140951, 42434.47392397808, 44392.710255707534, -187500.02235174447, -40127.75154444594, -187500.02235174447, -129091.49427312546, 55909.73715898242, -0.07, 0.93, 0.336, 192.0, 0.0, 0.0, 0.0, 0.0, 0.0, 0.0, 0.0, 0.0, 0.0, 1.7184697096112056E9, 0.0, 2024-06-15 11:41:49.611
136.0, 50048.97565233418, 42091.70992275595, 43432.97105228556, -187500.02235174447, -41295.250212579995, -187500.02235174447, -129661.9554951138, 53821.234860567434, -0.07, 0.93, 0.336, 192.0, 0.0, 0.0, 0.0, 0.0, 0.0, 0.0, 0.0, 0.0, 0.0, 1.7184697096112144E9, 0.0, 2024-06-15 11:41:49.611
137.0, 50039.69967838522, 42137.039260511316, 43374.5882957683, -187500.02235174447, -41406.58425171188, -187500.02235174447, -129799.0834473471, 52861.048622256356, -0.07, 0.93, 0.336, 192.0, 0.0, 0.0, 0.0, 0.0, 0.0, 0.0, 0.0, 0.0, 0.0, 1.7184697096112232E9, 0.0, 2024-06-15 11:41:49.611
138.0, 50098.88709770288, 42357.159239907174, 43283.32612315728, -187500.02235174447, -41419.682373962685, -187500.02235174447, -129690.83394895005, 53587.547372287205, -0.07, 0.93, 0.336, 192.0, 0.0, 0.0, 0.0, 0.0, 0.0, 0.0, 0.0, 0.0, 0.0, 1.718469709611232E9, 0.0, 2024-06-15 11:41:49.611
139.0, 50074.00960612412, 42486.93346821469, 44368.816240884815, -187500.02235174447, -40103.18697728956, -187500.02235174447, -129082.64298232115, 55877.550646966774, -0.07, 0.93, 0.336, 192.0, 0.0, 0.0, 0.0, 0.0, 0.0, 0.0, 0.0, 0.0, 0.0, 1.718469709611241E9, 0.0, 2024-06-15 11:41:49.611
140.0, 50058.81041989451, 42132.211283708966, 43588.51684195004, -187500.02235174447, -41033.80185768627, -187500.02235174447, -129556.49996477365, 54230.361191077376, -0.07, 0.93, 0.336, 192.0, 0.0, 0.0, 0.0, 0.0, 0.0, 0.0, 0.0, 0.0, 0.0, 1.71846970961125E9, 0.0, 2024-06-15 11:41:49.611
141.0, 50038.93971907374, 42121.95183300398, 43335.696260416065, -187500.02235174447, -41403.56676621041, -187500.02235174447, -129817.85891268957, 52854.36545066422, -0.074, 0.932, 0.334, 192.0, 253.0, 176.0, 29.0, 32.0, 10.0, 112.0, 0.0, 0.0, 0.0, 1.7184697096112595E9, 0.0, 2024-06-15 11:41:49.611
142.0, 50090.23697259867, 42304.49852997047, 43181.13394750762, -187500.02235174447, -41497.04176152251, -187500.02235174447, -129788.89105187549, 53223.97389697718, -0.074, 0.932, 0.334, 192.0, 0.0, 0.0, 0.0, 0.0, 0.0, 0.0, 0.0, 0.0, 0.0, 1.7184697096112683E9, 0.0, 2024-06-15 11:41:49.611
143.0, 50077.9211614038, 42517.44359939618, 44253.90592264008, -187500.02235174447, -40203.36749593824, -187500.02235174447, -129128.66522415463, 55685.61621732906, -0.074, 0.932, 0.334, 192.0, 0.0, 0.0, 0.0, 0.0, 0.0, 0.0, 0.0, 0.0, 0.0, 1.7184697096112776E9, 0.0, 2024-06-15 11:41:49.611
144.0, 50055.18943729275, 42176.64655168612, 43862.3033597831, -187500.02235174447, -40653.95631241278, -187500.02235174447, -129356.85418329886, 54751.89444445306, -0.074, 0.932, 0.334, 192.0, 0.0, 0.0, 0.0, 0.0, 0.0, 0.0, 0.0, 0.0, 0.0, 1.7184697096112864E9, 0.0, 2024-06-15 11:41:49.611
145.0, 50038.47033244018, 42105.16567291805, 43336.90325461665, -187500.02235174447, -41348.08973647234, -187500.02235174447, -129769.04270279917, 52940.8443499618, -0.074, 0.932, 0.334, 192.0, 0.0, 0.0, 0.0, 0.0, 0.0, 0.0, 0.0, 0.0, 0.0, 1.7184697096112957E9, 0.0, 2024-06-15 11:41:49.611
146.0, 50086.30306557454, 42256.576389858295, 43190.007590056375, -187500.02235174447, -41440.00010967256, -187500.02235174447, -129794.14371182249, 52997.796594833926, -0.074, 0.932, 0.334, 192.0, 0.0, 0.0, 0.0, 0.0, 0.0, 0.0, 0.0, 0.0, 0.0, 1.7184697096113043E9, 0.0, 2024-06-15 11:41:49.611
147.0, 50090.05815864303, 42526.361945433855, 44064.988978503825, -187500.02235174447, -40368.63629444078, -187500.02235174447, -129199.52025407796, 55336.99605905963, -0.074, 0.932, 0.334, 192.0, 0.0, 0.0, 0.0, 0.0, 0.0, 0.0, 0.0, 0.0, 0.0, 1.7184697096113133E9, 0.0, 2024-06-15 11:41:49.611
148.0, 50060.62091119539, 42246.920436253604, 44083.76444384628, -187500.02235174447, -40318.74720081654, -187500.02235174447, -129214.83119902984, 55202.729130116604, -0.074, 0.932, 0.334, 192.0, 0.0, 0.0, 0.0, 0.0, 0.0, 0.0, 0.0, 0.0, 0.0, 1.7184697096113222E9, 0.0, 2024-06-15 11:41:49.611
149.0, 50045.19820752123, 42095.97910594691, 43299.30762044282, -187500.02235174447, -41319.74772450301, -187500.02235174447, -129759.54321140567, 53042.83535991137, -0.074, 0.932, 0.334, 192.0, 0.0, 0.0, 0.0, 0.0, 0.0, 0.0, 0.0, 0.0, 0.0, 1.7184697096113312E9, 0.0, 2024-06-15 11:41:49.611
150.0, 50068.15344907683, 42217.572595783786, 43261.42141359108, -187500.02235174447, -41312.25989011048, -187500.02235174447, -129759.2302869833, 52879.93584632109, -0.074, 0.932, 0.334, 192.0, 0.0, 0.0, 0.0, 0.0, 0.0, 0.0, 0.0, 0.0, 0.0, 1.71846970961134E9, 0.0, 2024-06-15 11:41:49.611
151.0, 50096.11548139042, 42508.860529525344, 43845.02546131915, -187500.02235174447, -40573.713549818225, -187500.02235174447, -129301.08658088287, 54883.456812316996, -0.07200000000000001, 0.93, 0.334, 192.0, 253.0, 192.0, 29.0, 16.0, 10.0, 112.0, 0.0, 0.0, 0.0, 1.7184697096113489E9, 0.0, 2024-06-15 11:41:49.611
152.0, 50059.6150826949, 42309.639431195195, 44294.40728359309, -187500.02235174447, -40015.00934541337, -187500.02235174447, -129086.75570330092, 55585.10042251354, -0.07200000000000001, 0.93, 0.334, 192.0, 0.0, 0.0, 0.0, 0.0, 0.0, 0.0, 0.0, 0.0, 0.0, 1.7184697096113577E9, 0.0, 2024-06-15 11:41:49.611
153.0, 50056.82111463799, 42083.32801858521, 43288.24350693745, -187500.02235174447, -41261.29791275238, -187500.02235174447, -129739.627807096, 53205.62311477937, -0.07200000000000001, 0.93, 0.334, 192.0, 0.0, 0.0, 0.0, 0.0, 0.0, 0.0, 0.0, 0.0, 0.0, 1.7184697096113667E9, 0.0, 2024-06-15 11:41:49.611
154.0, 50063.77250716359, 42188.85060415872, 43293.65262909563, -187500.02235174447, -41227.32326118032, -187500.02235174447, -129767.94746732086, 52784.493897496934, -0.07200000000000001, 0.93, 0.334, 192.0, 0.0, 0.0, 0.0, 0.0, 0.0, 0.0, 0.0, 0.0, 0.0, 1.7184697096113756E9, 0.0, 2024-06-15 11:41:49.611
155.0, 50104.13975764987, 42469.81203196193, 43593.12130130784, -187500.02235174447, -40813.2348434013, -187500.02235174447, -129437.81220171598, 54369.16552414483, -0.07200000000000001, 0.93, 0.334, 192.0, 0.0, 0.0, 0.0, 0.0, 0.0, 0.0, 0.0, 0.0, 0.0, 1.7184697096113844E9, 0.0, 2024-06-15 11:41:49.611
156.0, 50061.023242595584, 42374.14656569321, 44438.08429695181, -187500.02235174447, -39791.51425260476, -187500.02235174447, -128983.33418170622, 55868.274673017826, -0.07200000000000001, 0.93, 0.334, 192.0, 0.0, 0.0, 0.0, 0.0, 0.0, 0.0, 0.0, 0.0, 0.0, 1.7184697096113935E9, 0.0, 2024-06-15 11:41:49.611
157.0, 50061.00089085113, 42079.79644296127, 43368.620379998734, -187500.02235174447, -41086.68608506752, -187500.02235174447, -129638.01677680216, 53519.508662165244, -0.07200000000000001, 0.93, 0.334, 192.0, 0.0, 0.0, 0.0, 0.0, 0.0, 0.0, 0.0, 0.0, 0.0, 1.7184697096114025E9, 0.0, 2024-06-15 11:41:49.611
158.0, 50050.60732967941, 42149.64564438411, 43341.30654827435, -187500.02235174447, -41111.83179757975, -187500.02235174447, -129736.61032159452, 52781.54346722883, -0.07200000000000001, 0.93, 0.334, 192.0, 0.0, 0.0, 0.0, 0.0, 0.0, 0.0, 0.0, 0.0, 0.0, 1.718469709611411E9, 0.0, 2024-06-15 11:41:49.611
159.0, 50104.519737305614, 42404.0084962855, 43356.97512113752, -187500.02235174447, -41015.36166851064, -187500.02235174447, -129581.98095345272, 53863.07732618777, -0.07200000000000001, 0.93, 0.334, 192.0, 0.0, 0.0, 0.0, 0.0, 0.0, 0.0, 0.0, 0.0, 0.0, 1.71846970961142E9, 0.0, 2024-06-15 11:41:49.611
160.0, 50064.68892868626, 42433.75866815551, 44463.23000946403, -187500.02235174447, -39698.84392009305, -187500.02235174447, -128958.68020757202, 55969.50572365591, -0.07200000000000001, 0.93, 0.334, 192.0, 0.0, 0.0, 0.0, 0.0, 0.0, 0.0, 0.0, 0.0, 0.0, 1.7184697096114287E9, 0.0, 2024-06-15 11:41:49.611
161.0, 50051.76962039109, 42084.15503313005, 43497.65700073922, -187500.02235174447, -40844.41552691645, -187500.02235174447, -129524.35815624693, 53915.17924251309, -0.07200000000000001, 0.93, 0.334, 192.0, 0.0, 0.0, 0.0, 0.0, 0.0, 0.0, 0.0, 0.0, 0.0, 1.7184697096114376E9, 0.0, 2024-06-15 11:41:49.611
162.0, 50038.82796035147, 42124.67874582753, 43358.94207464958, -187500.02235174447, -41023.02831685881, -187500.02235174447, -129707.26248112471, 52809.237278608955, -0.07200000000000001, 0.934, 0.33, 192.0, 253.0, 192.0, 29.0, 48.0, 10.0, 80.0, 0.0, 0.0, 0.0, 1.7184697096114466E9, 0.0, 2024-06-15 11:41:49.611
163.0, 50100.51877504811, 42352.554780549384, 43245.46226804999, -187500.02235174447, -41068.245895891894, -187500.02235174447, -129631.87004707695, 53472.748812764745, -0.07200000000000001, 0.934, 0.33, 192.0, 0.0, 0.0, 0.0, 0.0, 0.0, 0.0, 0.0, 0.0, 0.0, 1.7184697096114557E9, 0.0, 2024-06-15 11:41:49.611
164.0, 50063.45958274121, 42489.302753126954, 44386.272953304404, -187500.02235174447, -39713.551367944645, -187500.02235174447, -128978.86383281516, 55876.54481846629, -0.07200000000000001, 0.934, 0.33, 192.0, 0.0, 0.0, 0.0, 0.0, 0.0, 0.0, 0.0, 0.0, 0.0, 1.7184697096114652E9, 0.0, 2024-06-15 11:41:49.611
165.0, 50048.170989533784, 42112.45234161048, 43672.02295923507, -187500.02235174447, -40550.33362511798, -187500.02235174447, -129403.25640478807, 54350.56887275802, -0.07200000000000001, 0.934, 0.33, 192.0, 0.0, 0.0, 0.0, 0.0, 0.0, 0.0, 0.0, 0.0, 0.0, 1.7184697096114743E9, 0.0, 2024-06-15 11:41:49.611
166.0, 50037.08452428395, 42092.11225415615, 43347.94501637758, -187500.02235174447, -40977.0731302587, -187500.02235174447, -129694.38787631845, 52848.35283140574, -0.07200000000000001, 0.934, 0.33, 192.0, 0.0, 0.0, 0.0, 0.0, 0.0, 0.0, 0.0, 0.0, 0.0, 1.718469709611483E9, 0.0, 2024-06-15 11:41:49.611
167.0, 50091.71218773272, 42281.99032330398, 43182.31858996375, -187500.02235174447, -41083.623896077144, -187500.02235174447, -129689.42578904938, 53149.9449193412, -0.07200000000000001, 0.934, 0.33, 192.0, 0.0, 0.0, 0.0, 0.0, 0.0, 0.0, 0.0, 0.0, 0.0, 1.7184697096114922E9, 0.0, 2024-06-15 11:41:49.611
168.0, 50084.805498696034, 42516.79539880698, 44225.47450369293, -187500.02235174447, -39843.68322416344, -187500.02235174447, -129051.39524357262, 55624.01480961023, -0.07200000000000001, 0.934, 0.33, 192.0, 0.0, 0.0, 0.0, 0.0, 0.0, 0.0, 0.0, 0.0, 0.0, 1.7184697096115012E9, 0.0, 2024-06-15 11:41:49.611
169.0, 50067.192324065254, 42189.27528730337, 43892.232345608754, -187500.02235174447, -40217.6949641341, -187500.02235174447, -129262.73098739756, 54833.16538729255, -0.07200000000000001, 0.934, 0.33, 192.0, 0.0, 0.0, 0.0, 0.0, 0.0, 0.0, 0.0, 0.0, 0.0, 1.71846970961151E9, 0.0, 2024-06-15 11:41:49.611
170.0, 50046.069925554984, 42085.11615814164, 43287.103567970225, -187500.02235174447, -40983.510432661824, -187500.02235174447, -129711.41990559339, 52908.724893179526, -0.07200000000000001, 0.934, 0.33, 192.0, 0.0, 0.0, 0.0, 0.0, 0.0, 0.0, 0.0, 0.0, 0.0, 1.7184697096115189E9, 0.0, 2024-06-15 11:41:49.611
171.0, 50078.9716933932, 42232.592968057754, 43155.16122045055, -187500.02235174447, -41061.36155859966, -187500.02235174447, -129732.05056572564, 52918.73847469551, -0.07200000000000001, 0.934, 0.33, 192.0, 0.0, 0.0, 0.0, 0.0, 0.0, 0.0, 0.0, 0.0, 0.0, 1.7184697096115277E9, 0.0, 2024-06-15 11:41:49.611
172.0, 50081.05040562754, 42506.06656146843, 43983.60627694205, -187500.02235174447, -40066.21719196048, -187500.02235174447, -129158.70596870256, 55226.46668272814, -0.07200000000000001, 0.934, 0.332, 192.0, 253.0, 192.0, 29.0, 48.0, 10.0, 96.0, 0.0, 0.0, 0.0, 1.7184697096115365E9, 0.0, 2024-06-15 11:41:49.611
173.0, 50047.746306389134, 42227.98850869996, 44095.52146142977, -187500.02235174447, -39906.40221910503, -187500.02235174447, -129119.81393335032, 55281.13904966582, -0.07200000000000001, 0.934, 0.332, 192.0, 0.0, 0.0, 0.0, 0.0, 0.0, 0.0, 0.0, 0.0, 0.0, 1.7184697096115456E9, 0.0, 2024-06-15 11:41:49.611
174.0, 50037.03982079504, 42058.025843861804, 43214.952136868495, -187500.02235174447, -40991.355894965636, -187500.02235174447, -129712.85041723853, 53019.41073172221, -0.07200000000000001, 0.934, 0.332, 192.0, 0.0, 0.0, 0.0, 0.0, 0.0, 0.0, 0.0, 0.0, 0.0, 1.7184697096115544E9, 0.0, 2024-06-15 11:41:49.611
175.0, 50057.312853016, 42192.40453152711, 43150.82498202622, -187500.02235174447, -41013.081790576194, -187500.02235174447, -129748.32263568911, 52772.401603746606, -0.07200000000000001, 0.934, 0.332, 192.0, 0.0, 0.0, 0.0, 0.0, 0.0, 0.0, 0.0, 0.0, 0.0, 1.7184697096115634E9, 0.0, 2024-06-15 11:41:49.611
176.0, 50095.15435637884, 42497.21527066413, 43670.07835746746, -187500.02235174447, -40377.46523350063, -187500.02235174447, -129325.2264648946, 54711.2142695444, -0.07200000000000001, 0.934, 0.332, 192.0, 0.0, 0.0, 0.0, 0.0, 0.0, 0.0, 0.0, 0.0, 0.0, 1.7184697096115723E9, 0.0, 2024-06-15 11:41:49.611
177.0, 50053.44600122524, 42311.82990215182, 44233.1411520411, -187500.02235174447, -39703.068399795106, -187500.02235174447, -129038.6100457442, 55629.043952112675, -0.07200000000000001, 0.934, 0.332, 192.0, 0.0, 0.0, 0.0, 0.0, 0.0, 0.0, 0.0, 0.0, 0.0, 1.718469709611581E9, 0.0, 2024-06-15 11:41:49.611
178.0, 50039.05147779602, 42051.76735541432, 43229.145494597615, -187500.02235174447, -40931.788495992245, -187500.02235174447, -129655.98757934423, 53256.652147370834, -0.07200000000000001, 0.934, 0.332, 192.0, 0.0, 0.0, 0.0, 0.0, 0.0, 0.0, 0.0, 0.0, 0.0, 1.71846970961159E9, 0.0, 2024-06-15 11:41:49.611
179.0, 50050.87555061287, 42149.77975485084, 43219.24367180392, -187500.02235174447, -40914.51059752829, -187500.02235174447, -129704.89319621245, 52752.21797850347, -0.07200000000000001, 0.934, 0.332, 192.0, 0.0, 0.0, 0.0, 0.0, 0.0, 0.0, 0.0, 0.0, 0.0, 1.7184697096115987E9, 0.0, 2024-06-15 11:41:49.611
180.0, 50096.897792446354, 42445.62744446128, 43418.62123234526, -187500.02235174447, -40626.95540511077, -187500.02235174447, -129451.62557978935, 54207.31654254396, -0.07200000000000001, 0.934, 0.332, 192.0, 0.0, 0.0, 0.0, 0.0, 0.0, 0.0, 0.0, 0.0, 0.0, 1.7184697096116076E9, 0.0, 2024-06-15 11:41:49.611
181.0, 50056.17291404879, 42394.218432214075, 44316.49080711494, -187500.02235174447, -39558.720834102736, -187500.02235174447, -128978.05917001476, 55856.00356531186, -0.07200000000000001, 0.934, 0.332, 192.0, 0.0, 0.0, 0.0, 0.0, 0.0, 0.0, 0.0, 0.0, 0.0, 1.7184697096116166E9, 0.0, 2024-06-15 11:41:49.611
182.0, 50045.0640970545, 42066.16187884354, 43237.61680574618, -187500.02235174447, -40860.57583815764, -187500.02235174447, -129630.46188717627, 53533.67966814991, -0.076, 0.932, 0.328, 192.0, 253.0, 160.0, 29.0, 32.0, 10.0, 64.0, 0.0, 0.0, 0.0, 1.7184697096116257E9, 0.0, 2024-06-15 11:41:49.611
183.0, 50033.62000389338, 42126.131609217126, 43168.8404880572, -187500.02235174447, -40946.406536866016, -187500.02235174447, -129762.35953120704, 52693.16466965254, -0.076, 0.932, 0.328, 192.0, 0.0, 0.0, 0.0, 0.0, 0.0, 0.0, 0.0, 0.0, 0.0, 1.7184697096116343E9, 0.0, 2024-06-15 11:41:49.611
184.0, 50085.83367894097, 42382.66258033068, 43151.24966517087, -187500.02235174447, -40902.775931689255, -187500.02235174447, -129623.80106732859, 53700.311923064226, -0.076, 0.932, 0.328, 192.0, 0.0, 0.0, 0.0, 0.0, 0.0, 0.0, 0.0, 0.0, 0.0, 1.7184697096116433E9, 0.0, 2024-06-15 11:41:49.611
185.0, 50052.015489580095, 42443.235807804565, 44295.36840860467, -187500.02235174447, -39561.76067134865, -187500.02235174447, -128982.9989055394, 55920.1977753875, -0.076, 0.932, 0.328, 192.0, 0.0, 0.0, 0.0, 0.0, 0.0, 0.0, 0.0, 0.0, 0.0, 1.718469709611652E9, 0.0, 2024-06-15 11:41:49.611
186.0, 50034.402314949315, 42075.84018419268, 43385.92063020714, -187500.02235174447, -40647.966044898756, -187500.02235174447, -129507.86256883891, 53968.86813269474, -0.076, 0.932, 0.328, 192.0, 0.0, 0.0, 0.0, 0.0, 0.0, 0.0, 0.0, 0.0, 0.0, 1.7184697096116607E9, 0.0, 2024-06-15 11:41:49.611
187.0, 50011.894108282824, 42093.833338479206, 43213.83454964573, -187500.02235174447, -40883.620486691056, -187500.02235174447, -129705.58610029056, 52766.791315888324, -0.076, 0.932, 0.328, 192.0, 0.0, 0.0, 0.0, 0.0, 0.0, 0.0, 0.0, 0.0, 0.0, 1.7184697096116695E9, 0.0, 2024-06-15 11:41:49.611
188.0, 50076.75887069212, 42315.920271387135, 43043.29073945174, -187500.02235174447, -41002.73293289339, -187500.02235174447, -129681.80384419012, 53323.707380736756, -0.076, 0.932, 0.328, 192.0, 0.0, 0.0, 0.0, 0.0, 0.0, 0.0, 0.0, 0.0, 0.0, 1.7184697096116788E9, 0.0, 2024-06-15 11:41:49.611
189.0, 50051.881379113365, 42480.630276278294, 44217.7855036003, -187500.02235174447, -39628.79355297012, -187500.02235174447, -128987.31279221927, 55822.23007943989, -0.076, 0.932, 0.328, 192.0, 0.0, 0.0, 0.0, 0.0, 0.0, 0.0, 0.0, 0.0, 0.0, 1.7184697096116877E9, 0.0, 2024-06-15 11:41:49.611
190.0, 50032.52476841507, 42107.736123530405, 43575.418719699235, -187500.02235174447, -40384.37192253732, -187500.02235174447, -129367.11363400385, 54434.23145225424, -0.076, 0.932, 0.328, 192.0, 0.0, 0.0, 0.0, 0.0, 0.0, 0.0, 0.0, 0.0, 0.0, 1.7184697096116965E9, 0.0, 2024-06-15 11:41:49.611
191.0, 50009.27895418155, 42077.42715804901, 43133.234159139894, -187500.02235174447, -40956.53187710427, -187500.02235174447, -129748.83672581158, 52775.329682270254, -0.076, 0.932, 0.328, 192.0, 0.0, 0.0, 0.0, 0.0, 0.0, 0.0, 0.0, 0.0, 0.0, 1.7184697096117053E9, 0.0, 2024-06-15 11:41:49.611
192.0, 50056.709355915715, 42255.7717270579, 42968.233581570814, -187500.02235174447, -41073.31974188325, -187500.02235174447, -129747.83089731108, 53017.77905437697, -0.082, 0.928, 0.324, 192.0, 253.0, 112.0, 29.0, 0.0, 10.0, 32.0, 0.0, 0.0, 0.0, 1.718469709611714E9, 0.0, 2024-06-15 11:41:49.611
193.0, 50063.414879252305, 42506.26772716853, 43976.632532671996, -187500.02235174447, -39889.90663169702, -187500.02235174447, -129123.25610199645, 55493.07829059104, -0.082, 0.928, 0.324, 192.0, 0.0, 0.0, 0.0, 0.0, 0.0, 0.0, 0.0, 0.0, 0.0, 1.7184697096117232E9, 0.0, 2024-06-15 11:41:49.611
194.0, 50027.696791612725, 42169.35988299369, 43749.09177411697, -187500.02235174447, -40148.806887722836, -187500.02235174447, -129267.04487407743, 54895.45969908949, -0.082, 0.928, 0.324, 192.0, 0.0, 0.0, 0.0, 0.0, 0.0, 0.0, 0.0, 0.0, 0.0, 1.718469709611732E9, 0.0, 2024-06-15 11:41:49.611
195.0, 50010.53065187105, 42060.685701451985, 43073.77851888878, -187500.02235174447, -41005.30338350575, -187500.02235174447, -129748.38969092247, 52872.89504681767, -0.082, 0.928, 0.324, 192.0, 0.0, 0.0, 0.0, 0.0, 0.0, 0.0, 0.0, 0.0, 0.0, 1.7184697096117408E9, 0.0, 2024-06-15 11:41:49.611
196.0, 50046.360498232905, 42217.39378182814, 42926.659336883946, -187500.02235174447, -41111.16124524608, -187500.02235174447, -129801.51978749274, 52805.30337158482, -0.082, 0.928, 0.324, 192.0, 0.0, 0.0, 0.0, 0.0, 0.0, 0.0, 0.0, 0.0, 0.0, 1.7184697096117496E9, 0.0, 2024-06-15 11:41:49.611
197.0, 50045.868759854886, 42496.90234624175, 43722.24732902615, -187500.02235174447, -40172.87971650121, -187500.02235174447, -129233.53960913893, 55086.92474209366, -0.082, 0.928, 0.324, 192.0, 0.0, 0.0, 0.0, 0.0, 0.0, 0.0, 0.0, 0.0, 0.0, 1.7184697096117585E9, 0.0, 2024-06-15 11:41:49.611
198.0, 50019.6054601199, 42247.79215428736, 43947.821134069105, -187500.02235174447, -39897.30505911172, -187500.02235174447, -129135.05782306884, 55343.6121754184, -0.082, 0.928, 0.324, 192.0, 0.0, 0.0, 0.0, 0.0, 0.0, 0.0, 0.0, 0.0, 0.0, 1.7184697096117673E9, 0.0, 2024-06-15 11:41:49.611
199.0, 50010.3071344265, 42053.64490194856, 43035.98171901485, -187500.02235174447, -41029.84559891768, -187500.02235174447, -129731.89410351445, 53035.83926389686, -0.082, 0.928, 0.324, 192.0, 0.0, 0.0, 0.0, 0.0, 0.0, 0.0, 0.0, 0.0, 0.0, 1.7184697096117764E9, 0.0, 2024-06-15 11:41:49.611
200.0, 50036.52573067257, 42182.68152268905, 42958.35411052157, -187500.02235174447, -41075.174936673044, -187500.02235174447, -129798.05526710216, 52711.82837627273, -0.082, 0.928, 0.324, 192.0, 0.0, 0.0, 0.0, 0.0, 0.0, 0.0, 0.0, 0.0, 0.0, 1.7184697096117852E9, 0.0, 2024-06-15 11:41:49.611
201.0, 50071.8191351675, 42484.8771077248, 43418.665935834164, -187500.02235174447, -40511.79921767703, -187500.02235174447, -129402.42939024323, 54572.38758473249, -0.082, 0.928, 0.324, 192.0, 0.0, 0.0, 0.0, 0.0, 0.0, 0.0, 0.0, 0.0, 0.0, 1.718469709611794E9, 0.0, 2024-06-15 11:41:49.611
202.0, 50027.09329451243, 42327.07379187033, 44073.795565819215, -187500.02235174447, -39733.93615888788, -187500.02235174447, -129068.9637147145, 55671.2887491332, -0.082, 0.928, 0.324, 192.0, 0.0, 0.0, 0.0, 0.0, 0.0, 0.0, 0.0, 0.0, 0.0, 1.718469709611803E9, 0.0, 2024-06-15 11:41:49.611
203.0, 50020.2536607091, 42050.694471680465, 42997.8496429741, -187500.02235174447, -41050.02922416082, -187500.02235174447, -129747.38386242198, 53242.27997568608, -0.084, 0.922, 0.328, 192.0, 253.0, 96.0, 28.0, 208.0, 10.0, 64.0, 0.0, 0.0, 0.0, 1.718469709611812E9, 0.0, 2024-06-15 11:41:49.611
204.0, 50021.84063456543, 42146.42699318254, 42979.3423985651, -187500.02235174447, -41061.02628243283, -187500.02235174447, -129816.92013942244, 52664.91206466104, -0.084, 0.922, 0.328, 192.0, 0.0, 0.0, 0.0, 0.0, 0.0, 0.0, 0.0, 0.0, 0.0, 1.7184697096118207E9, 0.0, 2024-06-15 11:41:49.611
205.0, 50071.28269330057, 42424.30388025092, 43149.461525614446, -187500.02235174447, -40820.11918069353, -187500.02235174447, -129567.7875957236, 54055.88347385925, -0.084, 0.922, 0.328, 192.0, 0.0, 0.0, 0.0, 0.0, 0.0, 0.0, 0.0, 0.0, 0.0, 1.7184697096118295E9, 0.0, 2024-06-15 11:41:49.611
206.0, 50022.26531771008, 42381.075606474355, 44150.64086325656, -187500.02235174447, -39648.61955030198, -187500.02235174447, -129022.6061967142, 55874.711975420956, -0.084, 0.922, 0.328, 192.0, 0.0, 0.0, 0.0, 0.0, 0.0, 0.0, 0.0, 0.0, 0.0, 1.7184697096118388E9, 0.0, 2024-06-15 11:41:49.611
207.0, 50017.37028567437, 42051.78970715877, 43089.268277796305, -187500.02235174447, -40932.57080704818, -187500.02235174447, -129670.44915800681, 53599.37144510406, -0.084, 0.922, 0.328, 192.0, 0.0, 0.0, 0.0, 0.0, 0.0, 0.0, 0.0, 0.0, 0.0, 1.718469709611848E9, 0.0, 2024-06-15 11:41:49.611
208.0, 50003.80277679, 42106.77499851883, 43015.66398330498, -187500.02235174447, -41037.9369304105, -187500.02235174447, -129809.00762188526, 52681.22883811341, -0.084, 0.922, 0.328, 192.0, 0.0, 0.0, 0.0, 0.0, 0.0, 0.0, 0.0, 0.0, 0.0, 1.7184697096118567E9, 0.0, 2024-06-15 11:41:49.611
209.0, 50062.856085640924, 42359.1485451637, 42942.35026149157, -187500.02235174447, -41058.92521845403, -187500.02235174447, -129714.57150156159, 53581.75827047328, -0.084, 0.922, 0.328, 192.0, 0.0, 0.0, 0.0, 0.0, 0.0, 0.0, 0.0, 0.0, 0.0, 1.7184697096118655E9, 0.0, 2024-06-15 11:41:49.611
210.0, 50036.27986148356, 42450.45542126363, 44075.44959490891, -187500.02235174447, -39738.942949645876, -187500.02235174447, -129096.97045051701, 55855.64593740058, -0.084, 0.922, 0.328, 192.0, 0.0, 0.0, 0.0, 0.0, 0.0, 0.0, 0.0, 0.0, 0.0, 1.7184697096118743E9, 0.0, 2024-06-15 11:41:49.611
211.0, 50024.679306111255, 42083.95386742996, 43217.813160158774, -187500.02235174447, -40770.49830800275, -187500.02235174447, -129599.97410773924, 54020.92534553115, -0.084, 0.922, 0.328, 192.0, 0.0, 0.0, 0.0, 0.0, 0.0, 0.0, 0.0, 0.0, 0.0, 1.7184697096118832E9, 0.0, 2024-06-15 11:41:49.611
212.0, 50006.79791054701, 42092.5369373008, 42995.70387550639, -187500.02235174447, -41081.76870128736, -187500.02235174447, -129841.32824436764, 52709.45909136046, -0.084, 0.922, 0.328, 192.0, 0.0, 0.0, 0.0, 0.0, 0.0, 0.0, 0.0, 0.0, 0.0, 1.7184697096118922E9, 0.0, 2024-06-15 11:41:49.611
213.0, 50060.08446932846, 42309.080637583815, 42852.47389703678, -187500.02235174447, -41182.21744086951, -187500.02235174447, -129792.91436587744, 53230.59001333595, -0.08, 0.93, 0.33, 192.0, 253.0, 128.0, 29.0, 16.0, 10.0, 80.0, 0.0, 0.0, 0.0, 1.7184697096119013E9, 0.0, 2024-06-15 11:41:49.611
214.0, 50043.275957498074, 42495.04715145197, 43999.00662887176, -187500.02235174447, -39851.64044518953, -187500.02235174447, -129113.95777630304, 55740.42269473347, -0.08, 0.93, 0.33, 192.0, 0.0, 0.0, 0.0, 0.0, 0.0, 0.0, 0.0, 0.0, 0.0, 1.71846970961191E9, 0.0, 2024-06-15 11:41:49.611
215.0, 50027.09329451243, 42137.32983318923, 43453.10997403979, -187500.02235174447, -40500.28806928254, -187500.02235174447, -129440.67322500626, 54531.64035459046, -0.08, 0.93, 0.33, 192.0, 0.0, 0.0, 0.0, 0.0, 0.0, 0.0, 0.0, 0.0, 0.0, 1.7184697096119187E9, 0.0, 2024-06-15 11:41:49.611
216.0, 50008.98838150363, 42080.91403018404, 42996.32972435114, -187500.02235174447, -41105.238032965426, -187500.02235174447, -129811.33220330862, 52800.20717384901, -0.08, 0.93, 0.33, 192.0, 0.0, 0.0, 0.0, 0.0, 0.0, 0.0, 0.0, 0.0, 0.0, 1.7184697096119275E9, 0.0, 2024-06-15 11:41:49.611
217.0, 50050.339108745946, 42248.12743045419, 42852.563304014606, -187500.02235174447, -41201.17172016761, -187500.02235174447, -129799.57518572513, 52986.08428073934, -0.08, 0.93, 0.33, 192.0, 0.0, 0.0, 0.0, 0.0, 0.0, 0.0, 0.0, 0.0, 0.0, 1.7184697096119363E9, 0.0, 2024-06-15 11:41:49.611
218.0, 50043.566530175995, 42496.432959608195, 43801.8865945204, -187500.02235174447, -40087.54075617084, -187500.02235174447, -129199.00616395548, 55422.02209496762, -0.08, 0.93, 0.33, 192.0, 0.0, 0.0, 0.0, 0.0, 0.0, 0.0, 0.0, 0.0, 0.0, 1.7184697096119452E9, 0.0, 2024-06-15 11:41:49.611
219.0, 50017.906727541296, 42175.86424063018, 43695.447587424234, -187500.02235174447, -40212.0399727869, -187500.02235174447, -129280.88060389528, 55026.060941941854, -0.08, 0.93, 0.33, 192.0, 0.0, 0.0, 0.0, 0.0, 0.0, 0.0, 0.0, 0.0, 0.0, 1.7184697096119542E9, 0.0, 2024-06-15 11:41:49.611
220.0, 50007.6025733474, 42049.152201313045, 42959.225828555325, -187500.02235174447, -41151.61790271019, -187500.02235174447, -129810.23696783031, 52908.009637356954, -0.08, 0.93, 0.33, 192.0, 0.0, 0.0, 0.0, 0.0, 0.0, 0.0, 0.0, 0.0, 0.0, 1.7184697096119633E9, 0.0, 2024-06-15 11:41:49.611
221.0, 50037.01746905059, 42198.908889163606, 42860.09584189604, -187500.02235174447, -41212.0793714618, -187500.02235174447, -129838.95895945537, 52808.320857086284, -0.08, 0.93, 0.33, 192.0, 0.0, 0.0, 0.0, 0.0, 0.0, 0.0, 0.0, 0.0, 0.0, 1.718469709611972E9, 0.0, 2024-06-15 11:41:49.611
222.0, 50055.4129547373, 42487.51461357053, 43550.98826300958, -187500.02235174447, -40390.87628017381, -187500.02235174447, -129340.33624414638, 54987.88416241219, -0.08, 0.93, 0.33, 192.0, 0.0, 0.0, 0.0, 0.0, 0.0, 0.0, 0.0, 0.0, 0.0, 1.718469709611981E9, 0.0, 2024-06-15 11:41:49.611
223.0, 50024.411085177795, 42247.36747114271, 43891.8076624641, -187500.02235174447, -39989.32719103422, -187500.02235174447, -129178.6437247567, 55450.67703135932, -0.08600000000000001, 0.928, 0.332, 192.0, 253.0, 80.0, 29.0, 0.0, 10.0, 96.0, 0.0, 0.0, 0.0, 1.7184697096119895E9, 0.0, 2024-06-15 11:41:49.611
224.0, 50017.973782774665, 42035.383526728576, 42972.90509616198, -187500.02235174447, -41142.72190841698, -187500.02235174447, -129773.20012726786, 53116.75257882507, -0.08600000000000001, 0.928, 0.332, 192.0, 0.0, 0.0, 0.0, 0.0, 0.0, 0.0, 0.0, 0.0, 0.0, 1.7184697096119986E9, 0.0, 2024-06-15 11:41:49.611
225.0, 50032.07773352596, 42155.79237410932, 42910.05199075365, -187500.02235174447, -41182.57506878079, -187500.02235174447, -129851.85591600608, 52722.75837931137, -0.08600000000000001, 0.928, 0.332, 192.0, 0.0, 0.0, 0.0, 0.0, 0.0, 0.0, 0.0, 0.0, 0.0, 1.7184697096120076E9, 0.0, 2024-06-15 11:41:49.612
226.0, 50066.074736842485, 42455.663377721714, 43286.969457503496, -187500.02235174447, -40709.92508052887, -187500.02235174447, -129499.21244373471, 54475.962159152295, -0.08600000000000001, 0.928, 0.332, 192.0, 0.0, 0.0, 0.0, 0.0, 0.0, 0.0, 0.0, 0.0, 0.0, 1.7184697096120164E9, 0.0, 2024-06-15 11:41:49.612
227.0, 50018.21965196367, 42323.31869880184, 44057.43408887793, -187500.02235174447, -39805.70761033388, -187500.02235174447, -129083.31353465481, 55775.38082306157, -0.08600000000000001, 0.928, 0.332, 192.0, 0.0, 0.0, 0.0, 0.0, 0.0, 0.0, 0.0, 0.0, 0.0, 1.7184697096120253E9, 0.0, 2024-06-15 11:41:49.612
228.0, 50011.17885246025, 42036.009375573325, 43018.14502693952, -187500.02235174447, -41083.780358288335, -187500.02235174447, -129724.13804818847, 53385.75582334469, -0.08600000000000001, 0.928, 0.332, 192.0, 0.0, 0.0, 0.0, 0.0, 0.0, 0.0, 0.0, 0.0, 0.0, 1.7184697096120512E9, 0.0, 2024-06-15 11:41:49.612
229.0, 50013.99517226162, 42117.034449223815, 42990.25004985929, -187500.02235174447, -41113.351716202706, -187500.02235174447, -129822.68688949192, 52713.21418442896, -0.08600000000000001, 0.928, 0.332, 192.0, 0.0, 0.0, 0.0, 0.0, 0.0, 0.0, 0.0, 0.0, 0.0, 1.7184697096120603E9, 0.0, 2024-06-15 11:41:49.612
230.0, 50059.27980652807, 42395.268964203475, 43081.8698503816, -187500.02235174447, -40954.45316486993, -187500.02235174447, -129617.90020679239, 53976.02069092044, -0.08600000000000001, 0.928, 0.332, 192.0, 0.0, 0.0, 0.0, 0.0, 0.0, 0.0, 0.0, 0.0, 0.0, 1.71846970961207E9, 0.0, 2024-06-15 11:41:49.612
231.0, 50013.503433883605, 42384.74129256503, 44121.20361580892, -187500.02235174447, -39740.41816477993, -187500.02235174447, -129049.89767669412, 55915.48155730743, -0.08600000000000001, 0.928, 0.332, 192.0, 0.0, 0.0, 0.0, 0.0, 0.0, 0.0, 0.0, 0.0, 0.0, 1.718469709612079E9, 0.0, 2024-06-15 11:41:49.612
232.0, 50010.44124489323, 42040.211503530925, 43125.18753113598, -187500.02235174447, -40956.15189744853, -187500.02235174447, -129648.52209669616, 53731.71612402393, -0.08600000000000001, 0.928, 0.332, 192.0, 0.0, 0.0, 0.0, 0.0, 0.0, 0.0, 0.0, 0.0, 0.0, 1.7184697096121037E9, 0.0, 2024-06-15 11:41:49.612
233.0, 50000.94175349972, 42087.17251863152, 43030.61730034558, -187500.02235174447, -41100.678277096544, -187500.02235174447, -129827.13488663852, 52720.63496358812, -0.082, 0.93, 0.33, 192.0, 253.0, 112.0, 29.0, 16.0, 10.0, 80.0, 0.0, 0.0, 0.0, 1.7184697096121125E9, 0.0, 2024-06-15 11:41:49.612
234.0, 50058.83277163897, 42332.99700415099, 42929.05097354067, -187500.02235174447, -41154.38951902265, -187500.02235174447, -129739.76191756272, 53520.82741508811, -0.082, 0.93, 0.33, 192.0, 0.0, 0.0, 0.0, 0.0, 0.0, 0.0, 0.0, 0.0, 0.0, 1.7184697096121216E9, 0.0, 2024-06-15 11:41:49.612
235.0, 50024.63460262235, 42442.83347640437, 44102.62931616656, -187500.02235174447, -39786.48511010231, -187500.02235174447, -129065.72271176848, 55900.88586817812, -0.082, 0.93, 0.33, 192.0, 0.0, 0.0, 0.0, 0.0, 0.0, 0.0, 0.0, 0.0, 0.0, 1.7184697096121304E9, 0.0, 2024-06-15 11:41:49.612
236.0, 50013.928117028256, 42070.90044866806, 43287.2153266925, -187500.02235174447, -40767.9725608793, -187500.02235174447, -129562.31141833204, 54154.074687251414, -0.082, 0.93, 0.33, 192.0, 0.0, 0.0, 0.0, 0.0, 0.0, 0.0, 0.0, 0.0, 0.0, 1.7184697096121392E9, 0.0, 2024-06-15 11:41:49.612
237.0, 49996.53845984203, 42072.06273937973, 43037.23341670435, -187500.02235174447, -41121.71126862899, -187500.02235174447, -129838.31075886617, 52767.081888566245, -0.082, 0.93, 0.33, 192.0, 0.0, 0.0, 0.0, 0.0, 0.0, 0.0, 0.0, 0.0, 0.0, 1.718469709612148E9, 0.0, 2024-06-15 11:41:49.612
238.0, 50045.0640970545, 42274.90482031165, 42882.134661928976, -187500.02235174447, -41230.25133970396, -187500.02235174447, -129796.9823833683, 53193.262600095586, -0.082, 0.93, 0.33, 192.0, 0.0, 0.0, 0.0, 0.0, 0.0, 0.0, 0.0, 0.0, 0.0, 1.718469709612157E9, 0.0, 2024-06-15 11:41:49.612
239.0, 50034.51407367159, 42480.45146232265, 43953.81140158312, -187500.02235174447, -39975.066778071734, -187500.02235174447, -129162.90809666016, 55674.753269523775, -0.082, 0.93, 0.33, 192.0, 0.0, 0.0, 0.0, 0.0, 0.0, 0.0, 0.0, 0.0, 0.0, 1.718469709612166E9, 0.0, 2024-06-15 11:41:49.612
240.0, 50014.28574493954, 42118.86729226915, 43492.89607917024, -187500.02235174447, -40524.78558120556, -187500.02235174447, -129459.00165545961, 54622.65665801247, -0.082, 0.93, 0.33, 192.0, 0.0, 0.0, 0.0, 0.0, 0.0, 0.0, 0.0, 0.0, 0.0, 1.7184697096121747E9, 0.0, 2024-06-15 11:41:49.612
241.0, 49998.34895114291, 42049.55453271324, 43027.68922182194, -187500.02235174447, -41150.321501531784, -187500.02235174447, -129842.37877635704, 52846.54234010486, -0.082, 0.93, 0.33, 192.0, 0.0, 0.0, 0.0, 0.0, 0.0, 0.0, 0.0, 0.0, 0.0, 1.7184697100903137E9, 0.0, 2024-06-15 11:41:50.090
242.0, 50026.17687298976, 42210.62120325818, 42894.18225219038, -187500.02235174447, -41236.08514500679, -187500.02235174447, -129840.07654667814, 52961.922044983156, -0.082, 0.93, 0.33, 192.0, 0.0, 0.0, 0.0, 0.0, 0.0, 0.0, 0.0, 0.0, 0.0, 1.718469710090381E9, 0.0, 2024-06-15 11:41:50.090
243.0, 50023.71818109968, 42470.10260463984, 43763.24042835718, -187500.02235174447, -40203.36749593824, -187500.02235174447, -129264.58618218736, 55330.581108400955, -0.082, 0.93, 0.33, 192.0, 0.0, 0.0, 0.0, 0.0, 0.0, 0.0, 0.0, 0.0, 0.0, 1.7184697100904543E9, 0.0, 2024-06-15 11:41:50.090
244.0, 50005.23328843514, 42171.3044847613, 43720.570948192, -187500.02235174447, -40252.22840931755, -187500.02235174447, -129336.04470921097, 55095.01607358648, -0.084, 0.936, 0.326, 192.0, 253.0, 96.0, 29.0, 64.0, 10.0, 48.0, 0.0, 0.0, 0.0, 1.7184697100904963E9, 0.0, 2024-06-15 11:41:50.090
245.0, 49993.11864294036, 42027.046326046744, 43005.62805004454, -187500.02235174447, -41182.73153099198, -187500.02235174447, -129845.10568918058, 52974.9531120006, -0.084, 0.936, 0.326, 192.0, 0.0, 0.0, 0.0, 0.0, 0.0, 0.0, 0.0, 0.0, 0.0, 1.7184697100905144E9, 0.0, 2024-06-15 11:41:50.090
246.0, 50018.01848626357, 42174.009045840394, 42936.18118002191, -187500.02235174447, -41214.26984241841, -187500.02235174447, -129873.87238429456, 52820.52490955889, -0.084, 0.936, 0.326, 192.0, 0.0, 0.0, 0.0, 0.0, 0.0, 0.0, 0.0, 0.0, 0.0, 1.718469710090531E9, 0.0, 2024-06-15 11:41:50.090
247.0, 50041.64428015283, 42472.06955815191, 43526.535454575474, -187500.02235174447, -40493.96252560169, -187500.02235174447, -129408.71023043517, 54884.48499256194, -0.084, 0.936, 0.326, 192.0, 0.0, 0.0, 0.0, 0.0, 0.0, 0.0, 0.0, 0.0, 0.0, 1.718469710090546E9, 0.0, 2024-06-15 11:41:50.090
248.0, 50015.22451820666, 42259.59387535976, 43926.855197770026, -187500.02235174447, -40020.77609548284, -187500.02235174447, -129233.18198122764, 55503.047168618104, -0.084, 0.936, 0.326, 192.0, 0.0, 0.0, 0.0, 0.0, 0.0, 0.0, 0.0, 0.0, 0.0, 1.718469710090562E9, 0.0, 2024-06-15 11:41:50.090
249.0, 50017.50439614111, 42027.31454698021, 42987.679599246934, -187500.02235174447, -41206.960821981535, -187500.02235174447, -129856.10274745259, 53153.18592228722, -0.084, 0.936, 0.326, 192.0, 0.0, 0.0, 0.0, 0.0, 0.0, 0.0, 0.0, 0.0, 0.0, 1.7184697100905783E9, 0.0, 2024-06-15 11:41:50.090
250.0, 50022.89116655483, 42126.62334759514, 42972.05572987267, -187500.02235174447, -41201.75286552344, -187500.02235174447, -129915.98307084836, 52729.35214392569, -0.084, 0.936, 0.326, 192.0, 0.0, 0.0, 0.0, 0.0, 0.0, 0.0, 0.0, 0.0, 0.0, 1.7184697100905952E9, 0.0, 2024-06-15 11:41:50.090
251.0, 50047.92512034478, 42415.743162124534, 43269.15511717262, -187500.02235174447, -40808.831549743605, -187500.02235174447, -129581.75743600816, 54368.56202704454, -0.084, 0.936, 0.326, 192.0, 0.0, 0.0, 0.0, 0.0, 0.0, 0.0, 0.0, 0.0, 0.0, 1.7184697100906124E9, 0.0, 2024-06-15 11:41:50.090
252.0, 50003.646314578815, 42316.79198942089, 44088.681827626446, -187500.02235174447, -39844.21966603037, -187500.02235174447, -129140.9810353495, 55810.83068976769, -0.084, 0.936, 0.326, 192.0, 0.0, 0.0, 0.0, 0.0, 0.0, 0.0, 0.0, 0.0, 0.0, 1.7184697100906286E9, 0.0, 2024-06-15 11:41:50.090
253.0, 50006.48498612463, 42023.04536378925, 43092.84455690916, -187500.02235174447, -41078.17007043005, -187500.02235174447, -129752.07772875759, 53493.06654847462, -0.084, 0.936, 0.326, 192.0, 0.0, 0.0, 0.0, 0.0, 0.0, 0.0, 0.0, 0.0, 0.0, 1.718469710090646E9, 0.0, 2024-06-15 11:41:50.090
254.0, 50006.574393102455, 42100.91884147154, 43072.45976596591, -187500.02235174447, -41107.36144868868, -187500.02235174447, -129863.03178823374, 52758.92350184006, -0.082, 0.932, 0.334, 192.0, 253.0, 112.0, 29.0, 32.0, 10.0, 112.0, 0.0, 0.0, 0.0, 1.718469710090672E9, 0.0, 2024-06-15 11:41:50.090
255.0, 50042.00190806412, 42360.82492599785, 43098.834824423175, -187500.02235174447, -41005.9292323505, -187500.02235174447, -129675.94768714282, 53906.327951708794, -0.082, 0.932, 0.334, 192.0, 0.0, 0.0, 0.0, 0.0, 0.0, 0.0, 0.0, 0.0, 0.0, 1.7184697100906909E9, 0.0, 2024-06-15 11:41:50.090
0.0, 50008.31782916997, 42380.4050541407, 44183.6767415615, -187500.02235174447, -39729.64462395247, -187500.02235174447, -129051.61876101719, 55975.11601151419, -0.082, 0.932, 0.334, 192.0, 0.0, 0.0, 0.0, 0.0, 0.0, 0.0, 0.0, 0.0, 0.0, 1.7184697100907075E9, 0.0, 2024-06-15 11:41:50.090
1.0, 50011.98351526064, 42030.10851503712, 43241.260140092396, -187500.02235174447, -40881.899402368, -187500.02235174447, -129624.22575047324, 53890.23469570097, -0.082, 0.932, 0.334, 192.0, 0.0, 0.0, 0.0, 0.0, 0.0, 0.0, 0.0, 0.0, 0.0, 1.7184697100907261E9, 0.0, 2024-06-15 11:41:50.090
2.0, 49997.477233109144, 42064.19492533147, 43153.97657799442, -187500.02235174447, -41028.66095646155, -187500.02235174447, -129800.20103456987, 52815.048732167335, -0.082, 0.932, 0.334, 192.0, 0.0, 0.0, 0.0, 0.0, 0.0, 0.0, 0.0, 0.0, 0.0, 1.7184697100907433E9, 0.0, 2024-06-15 11:41:50.090
3.0, 50047.85806511141, 42296.071922310824, 42977.15192760849, -187500.02235174447, -41147.30401603031, -187500.02235174447, -129772.44016795637, 53478.761432023224, -0.082, 0.932, 0.334, 192.0, 0.0, 0.0, 0.0, 0.0, 0.0, 0.0, 0.0, 0.0, 0.0, 1.7184697100907612E9, 0.0, 2024-06-15 11:41:50.090
4.0, 50025.2604514671, 42436.73145016807, 44077.841231565624, -187500.02235174447, -39848.5559044547, -187500.02235174447, -129146.97130286353, 55853.18724551049, -0.082, 0.932, 0.334, 192.0, 0.0, 0.0, 0.0, 0.0, 0.0, 0.0, 0.0, 0.0, 0.0, 1.7184697100907774E9, 0.0, 2024-06-15 11:41:50.090
5.0, 50023.85229156641, 42090.61468727764, 43364.12767936321, -187500.02235174447, -40717.72583934377, -187500.02235174447, -129592.4415698578, 54279.289159690044, -0.082, 0.932, 0.334, 192.0, 0.0, 0.0, 0.0, 0.0, 0.0, 0.0, 0.0, 0.0, 0.0, 1.7184697100907955E9, 0.0, 2024-06-15 11:41:50.090
6.0, 49995.44322436371, 42070.118137612124, 43120.29249910027, -187500.02235174447, -41084.51796585536, -187500.02235174447, -129865.66929407946, 52831.343153875256, -0.082, 0.932, 0.334, 192.0, 0.0, 0.0, 0.0, 0.0, 0.0, 0.0, 0.0, 0.0, 0.0, 1.7184697100908136E9, 0.0, 2024-06-15 11:41:50.090
7.0, 50037.95624231771, 42247.56863684281, 42958.30940703266, -187500.02235174447, -41192.119263663204, -187500.02235174447, -129838.2437036328, 53173.97304463066, -0.082, 0.932, 0.334, 192.0, 0.0, 0.0, 0.0, 0.0, 0.0, 0.0, 0.0, 0.0, 0.0, 1.7184697100908291E9, 0.0, 2024-06-15 11:41:50.090
8.0, 50025.41691367828, 42461.85481093584, 43980.879364118504, -187500.02235174447, -39975.67027517203, -187500.02235174447, -129196.77098950995, 55642.00796389675, -0.08, 0.932, 0.338, 192.0, 253.0, 128.0, 29.0, 32.0, 10.0, 144.0, 0.0, 0.0, 0.0, 1.7184697100908444E9, 0.0, 2024-06-15 11:41:50.090
9.0, 50011.78234956054, 42117.794408535294, 43617.66351671976, -187500.02235174447, -40410.76933273904, -187500.02235174447, -129447.64696927632, 54769.08293593919, -0.08, 0.932, 0.338, 192.0, 0.0, 0.0, 0.0, 0.0, 0.0, 0.0, 0.0, 0.0, 0.0, 1.7184697100908606E9, 0.0, 2024-06-15 11:41:50.090
10.0, 49990.145860927805, 42015.22225322989, 43119.93487118898, -187500.02235174447, -41086.507271111885, -187500.02235174447, -129860.81896553267, 52916.972686883535, -0.08, 0.932, 0.338, 192.0, 0.0, 0.0, 0.0, 0.0, 0.0, 0.0, 0.0, 0.0, 0.0, 1.7184697100908766E9, 0.0, 2024-06-15 11:41:50.090
11.0, 50019.4042944198, 42165.761252136384, 42967.7418431928, -187500.02235174447, -41186.01723742691, -187500.02235174447, -129897.52052992828, 52937.37982957123, -0.08, 0.932, 0.338, 192.0, 0.0, 0.0, 0.0, 0.0, 0.0, 0.0, 0.0, 0.0, 0.0, 1.7184697100908923E9, 0.0, 2024-06-15 11:41:50.090
12.0, 50025.059285767, 42441.49237173705, 43776.271495374625, -187500.02235174447, -40209.80479834137, -187500.02235174447, -129320.26437762551, 55259.72607847764, -0.08, 0.932, 0.338, 192.0, 0.0, 0.0, 0.0, 0.0, 0.0, 0.0, 0.0, 0.0, 0.0, 1.7184697100909247E9, 0.0, 2024-06-15 11:41:50.090
13.0, 50001.27702966655, 42169.2034207825, 43874.93209540035, -187500.02235174447, -40091.38525621715, -187500.02235174447, -129290.7153714556, 55256.149799364786, -0.08, 0.932, 0.338, 192.0, 0.0, 0.0, 0.0, 0.0, 0.0, 0.0, 0.0, 0.0, 0.0, 1.718469710090943E9, 0.0, 2024-06-15 11:41:50.090
14.0, 49992.0010557176, 42012.29417470624, 43129.27790037131, -187500.02235174447, -41062.27798012233, -187500.02235174447, -129820.31760457964, 53082.28618887498, -0.08, 0.932, 0.338, 192.0, 0.0, 0.0, 0.0, 0.0, 0.0, 0.0, 0.0, 0.0, 0.0, 1.7184697100909605E9, 0.0, 2024-06-15 11:41:50.090
15.0, 50007.24494543612, 42128.18796970701, 43099.684190712476, -187500.02235174447, -41043.1895903575, -187500.02235174447, -129821.74811622479, 52883.1321457782, -0.08, 0.932, 0.338, 192.0, 0.0, 0.0, 0.0, 0.0, 0.0, 0.0, 0.0, 0.0, 0.0, 1.718469710090979E9, 0.0, 2024-06-15 11:41:50.090
16.0, 50034.91640507179, 42427.142551796744, 43562.29824570397, -187500.02235174447, -40444.07343197744, -187500.02235174447, -129412.77824792603, 54806.49975615738, -0.08, 0.932, 0.338, 192.0, 0.0, 0.0, 0.0, 0.0, 0.0, 0.0, 0.0, 0.0, 0.0, 1.7184697100909965E9, 0.0, 2024-06-15 11:41:50.090
17.0, 50008.49664312561, 42249.93792175507, 44049.4992195963, -187500.02235174447, -39851.72985216735, -187500.02235174447, -129178.95664917906, 55616.68343742889, -0.08, 0.932, 0.338, 192.0, 0.0, 0.0, 0.0, 0.0, 0.0, 0.0, 0.0, 0.0, 0.0, 1.7184697100910144E9, 0.0, 2024-06-15 11:41:50.091
18.0, 50004.94271575722, 42008.20380547093, 43124.31581310223, -187500.02235174447, -41024.2353110594, -187500.02235174447, -129784.59951694007, 53284.010682584136, -0.08, 0.932, 0.342, 192.0, 253.0, 128.0, 29.0, 32.0, 10.0, 176.0, 0.0, 0.0, 0.0, 1.7184697100910323E9, 0.0, 2024-06-15 11:41:50.091
19.0, 50014.24104145063, 42107.35614387466, 43121.96887993442, -187500.02235174447, -41007.00211608435, -187500.02235174447, -129850.26894214976, 52796.519136013885, -0.08, 0.932, 0.342, 192.0, 0.0, 0.0, 0.0, 0.0, 0.0, 0.0, 0.0, 0.0, 0.0, 1.7184697100910494E9, 0.0, 2024-06-15 11:41:50.091
20.0, 50051.81432388, 42385.121272220764, 43269.84802125073, -187500.02235174447, -40762.13875557647, -187500.02235174447, -129607.77486655413, 54258.189112924236, -0.08, 0.932, 0.342, 192.0, 0.0, 0.0, 0.0, 0.0, 0.0, 0.0, 0.0, 0.0, 0.0, 1.7184697100910664E9, 0.0, 2024-06-15 11:41:50.091
21.0, 50013.65989609479, 42318.021335365935, 44130.3678310356, -187500.02235174447, -39739.837019424085, -187500.02235174447, -129139.70698591555, 55846.8840535741, -0.08, 0.932, 0.342, 192.0, 0.0, 0.0, 0.0, 0.0, 0.0, 0.0, 0.0, 0.0, 0.0, 1.7184697100910845E9, 0.0, 2024-06-15 11:41:50.091
22.0, 50005.61326809088, 42001.766503067796, 43158.24576118538, -187500.02235174447, -40958.92351376099, -187500.02235174447, -129740.61128385202, 53577.690252982415, -0.08, 0.932, 0.342, 192.0, 0.0, 0.0, 0.0, 0.0, 0.0, 0.0, 0.0, 0.0, 0.0, 1.718469710091102E9, 0.0, 2024-06-15 11:41:50.091
23.0, 49993.789195274025, 42061.69152995247, 43161.95615076496, -187500.02235174447, -40977.76603433681, -187500.02235174447, -129840.85885773407, 52794.32866505726, -0.08, 0.932, 0.342, 192.0, 0.0, 0.0, 0.0, 0.0, 0.0, 0.0, 0.0, 0.0, 0.0, 1.71846971009112E9, 0.0, 2024-06-15 11:41:50.091
