%OpenBCI Raw EXG Data
%Number of channels = 8
%Sample Rate = 250 Hz
%Board = OpenBCI_GUI$BoardCytonSerial
Sample Index, EXG Channel 0, EXG Channel 1, EXG Channel 2, EXG Channel 3, EXG Channel 4, EXG Channel 5, EXG Channel 6, EXG Channel 7, Accel Channel 0, Accel Channel 1, Accel Channel 2, Other, Other, Other, Other, Other, Other, Other, Analog Channel 0, Analog Channel 1, Analog Channel 2, Timestamp, Other, Timestamp (Formatted)
98.0, 36996.808588124346, -63302.73309978642, 76128.5663996418, -187500.02235174447, -75455.24244967014, -187500.02235174447, -187500.02235174447, 202.77502569854568, 0.0, 0.0, 0.0, 192.0, 0.0, 0.0, 0.0, 0.0, 0.0, 0.0, 0.0, 0.0, 0.0, 1.7184703857462945E9, 0.0, 2024-06-15 11:53:05.746
99.0, 37001.39069573769, -62540.13628246025, 76476.51600557756, -187500.02235174447, -75193.59292907632, -187500.02235174447, -187500.02235174447, 1224.1603403282572, 0.0, 0.0, 0.0, 192.0, 0.0, 0.0, 0.0, 0.0, 0.0, 0.0, 0.0, 0.0, 0.0, 1.718470385746313E9, 0.0, 2024-06-15 11:53:05.746
100.0, 37015.56170172235, -62956.4598746848, 76068.66372450159, -187500.02235174447, -75555.57943053001, -187500.02235174447, -187500.02235174447, 624.194815658905, 0.0, 0.0, 0.0, 192.0, 0.0, 0.0, 0.0, 0.0, 0.0, 0.0, 0.0, 0.0, 0.0, 1.7184703857463243E9, 0.0, 2024-06-15 11:53:05.746
101.0, 37024.56945473784, -63523.81420419386, 76038.95825612047, -187500.02235174447, -75859.07141674416, -187500.02235174447, -187500.02235174447, -231.76523825707892, -0.35000000000000003, 0.92, 0.014, 192.0, 245.0, 16.0, 28.0, 192.0, 0.0, 112.0, 0.0, 0.0, 0.0, 1.7184703857463353E9, 0.0, 2024-06-15 11:53:05.746
102.0, 37004.89991961717, -63400.52198177839, 76155.18732728808, -187500.02235174447, -75511.21121778623, -187500.02235174447, -187500.02235174447, 131.56236786393737, -0.35000000000000003, 0.92, 0.014, 192.0, 0.0, 0.0, 0.0, 0.0, 0.0, 0.0, 0.0, 0.0, 0.0, 1.7184703857463458E9, 0.0, 2024-06-15 11:53:05.746
103.0, 37009.66084118615, -62720.09017706993, 76428.68327244322, -187500.02235174447, -75211.54137987392, -187500.02235174447, -187500.02235174447, 1123.5327867904648, -0.35000000000000003, 0.92, 0.014, 192.0, 0.0, 0.0, 0.0, 0.0, 0.0, 0.0, 0.0, 0.0, 0.0, 1.7184703857463613E9, 0.0, 2024-06-15 11:53:05.746
104.0, 37017.95333837907, -62820.38245444089, 76210.93257795961, -187500.02235174447, -75443.26191464209, -187500.02235174447, -187500.02235174447, 913.9628307775058, -0.35000000000000003, 0.92, 0.014, 192.0, 0.0, 0.0, 0.0, 0.0, 0.0, 0.0, 0.0, 0.0, 0.0, 1.7184703857463713E9, 0.0, 2024-06-15 11:53:05.746
105.0, 37031.74436470799, -63573.92681526266, 75983.05654323776, -187500.02235174447, -75851.29300967373, -187500.02235174447, -187500.02235174447, -158.02683329902092, -0.35000000000000003, 0.92, 0.014, 192.0, 0.0, 0.0, 0.0, 0.0, 0.0, 0.0, 0.0, 0.0, 0.0, 1.7184703857463813E9, 0.0, 2024-06-15 11:53:05.746
106.0, 37012.79008540989, -63517.66747446865, 76165.46912973751, -187500.02235174447, -75600.77465781863, -187500.02235174447, -187500.02235174447, 47.966843601088954, -0.35000000000000003, 0.92, 0.014, 192.0, 0.0, 0.0, 0.0, 0.0, 0.0, 0.0, 0.0, 0.0, 0.0, 1.718470385746392E9, 0.0, 2024-06-15 11:53:05.746
107.0, 37013.37123076573, -63060.52959686871, 76231.20561018058, -187500.02235174447, -75418.13855387432, -187500.02235174447, -187500.02235174447, 805.6015736581771, -0.35000000000000003, 0.92, 0.014, 192.0, 0.0, 0.0, 0.0, 0.0, 0.0, 0.0, 0.0, 0.0, 0.0, 1.7184703857464023E9, 0.0, 2024-06-15 11:53:05.746
108.0, 37034.78420195392, -63315.9429807595, 75801.4933230273, -187500.02235174447, -76208.60799653626, -187500.02235174447, -187500.02235174447, 296.40648322182693, -0.35000000000000003, 0.92, 0.014, 192.0, 0.0, 0.0, 0.0, 0.0, 0.0, 0.0, 0.0, 0.0, 0.0, 1.718470385746413E9, 0.0, 2024-06-15 11:53:05.746
109.0, 37002.03889632689, -63826.792100285544, 75996.5346451443, -187500.02235174447, -76216.49816232898, -187500.02235174447, -187500.02235174447, -415.2954119796052, -0.35000000000000003, 0.92, 0.014, 192.0, 0.0, 0.0, 0.0, 0.0, 0.0, 0.0, 0.0, 0.0, 0.0, 1.7184703857464235E9, 0.0, 2024-06-15 11:53:05.746
110.0, 36956.1731167046, -62441.7886068569, 77469.08992160439, -187500.02235174447, -74004.25660660942, -187500.02235174447, -187500.02235174447, 1693.010532022778, -0.35000000000000003, 0.92, 0.014, 192.0, 0.0, 0.0, 0.0, 0.0, 0.0, 0.0, 0.0, 0.0, 0.0, 1.7184703857464352E9, 0.0, 2024-06-15 11:53:05.746
111.0, 37060.60046679979, -63273.340555827686, 75759.29322949567, -187500.02235174447, -75371.06578005145, -187500.02235174447, -187500.02235174447, 677.0119878067957, -0.352, 0.916, 0.014, 192.0, 245.0, 0.0, 28.0, 160.0, 0.0, 112.0, 0.0, 0.0, 0.0, 1.7184703857464464E9, 0.0, 2024-06-15 11:53:05.746
112.0, 37101.258289964, -64852.69246729523, 74306.72041257864, -187500.02235174447, -78420.98366272256, -187500.02235174447, -187500.02235174447, -1878.977045890933, -0.352, 0.916, 0.014, 192.0, 0.0, 0.0, 0.0, 0.0, 0.0, 0.0, 0.0, 0.0, 0.0, 1.718470385746457E9, 0.0, 2024-06-15 11:53:05.746
113.0, 36985.61036415224, -64582.102248919284, 75752.0289125477, -187500.02235174447, -77357.68882723914, -187500.02235174447, -187500.02235174447, -1451.2317122497216, -0.352, 0.916, 0.014, 192.0, 0.0, 0.0, 0.0, 0.0, 0.0, 0.0, 0.0, 0.0, 0.0, 1.718470385746468E9, 0.0, 2024-06-15 11:53:05.746
114.0, 36905.05467713531, -62033.355180425075, 78427.19744768113, -187500.02235174447, -73400.02189874911, -187500.02235174447, -187500.02235174447, 2345.860284073387, -0.352, 0.916, 0.014, 192.0, 0.0, 0.0, 0.0, 0.0, 0.0, 0.0, 0.0, 0.0, 0.0, 1.7184703857464783E9, 0.0, 2024-06-15 11:53:05.746
115.0, 37052.95617019608, -62946.80392108011, 76273.07042754536, -187500.02235174447, -74622.12587858748, -187500.02235174447, -187500.02235174447, 1310.0804460144575, -0.352, 0.916, 0.014, 192.0, 0.0, 0.0, 0.0, 0.0, 0.0, 0.0, 0.0, 0.0, 0.0, 1.7184703857464893E9, 0.0, 2024-06-15 11:53:05.746
116.0, 37133.24363627954, -65036.177937528846, 74115.38948004121, -187500.02235174447, -78584.17374899075, -187500.02235174447, -187500.02235174447, -2013.7804167008899, -0.352, 0.916, 0.014, 192.0, 0.0, 0.0, 0.0, 0.0, 0.0, 0.0, 0.0, 0.0, 0.0, 1.7184703857464995E9, 0.0, 2024-06-15 11:53:05.746
117.0, 36994.88633810119, -64878.93341528576, 75477.2589179586, -187500.02235174447, -77822.56040842061, -187500.02235174447, -187500.02235174447, -1785.0773674341879, -0.352, 0.916, 0.014, 192.0, 0.0, 0.0, 0.0, 0.0, 0.0, 0.0, 0.0, 0.0, 0.0, 1.7184703857465098E9, 0.0, 2024-06-15 11:53:05.746
118.0, 36890.81661591728, -61951.145464318455, 78719.62532038991, -187500.02235174447, -73254.0873592004, -187500.02235174447, -187500.02235174447, 2535.201911354293, -0.352, 0.916, 0.014, 192.0, 0.0, 0.0, 0.0, 0.0, 0.0, 0.0, 0.0, 0.0, 0.0, 1.7184703857465203E9, 0.0, 2024-06-15 11:53:05.746
119.0, 37038.13696362221, -62672.21274044666, 76666.66229565887, -187500.02235174447, -74016.84063873776, -187500.02235174447, -187500.02235174447, 1831.2560714788524, -0.352, 0.916, 0.014, 192.0, 0.0, 0.0, 0.0, 0.0, 0.0, 0.0, 0.0, 0.0, 0.0, 1.7184703857465303E9, 0.0, 2024-06-15 11:53:05.746
120.0, 37143.97247361809, -65161.14654077847, 73949.11485303818, -187500.02235174447, -78595.57313866296, -187500.02235174447, -187500.02235174447, -2053.0524317088643, -0.352, 0.916, 0.014, 192.0, 0.0, 0.0, 0.0, 0.0, 0.0, 0.0, 0.0, 0.0, 0.0, 1.718470385746565E9, 0.0, 2024-06-15 11:53:05.746
121.0, 37019.71912619104, -65229.96756195636, 75108.2316170015, -187500.02235174447, -78352.83319387832, -187500.02235174447, -187500.02235174447, -2169.8849999767544, -0.352, 0.912, 0.012, 192.0, 245.0, 0.0, 28.0, 128.0, 0.0, 96.0, 0.0, 0.0, 0.0, 1.718470385746576E9, 0.0, 2024-06-15 11:53:05.746
122.0, 36880.87008963467, -62070.257910520784, 78828.74653682072, -187500.02235174447, -73325.27766529056, -187500.02235174447, -187500.02235174447, 2501.7413499046984, -0.352, 0.912, 0.012, 192.0, 0.0, 0.0, 0.0, 0.0, 0.0, 0.0, 0.0, 0.0, 0.0, 1.718470385746591E9, 0.0, 2024-06-15 11:53:05.746
123.0, 37009.07969583031, -62193.88540910309, 77298.76962885495, -187500.02235174447, -73152.78925332896, -187500.02235174447, -187500.02235174447, 2645.820694663608, -0.352, 0.912, 0.012, 192.0, 0.0, 0.0, 0.0, 0.0, 0.0, 0.0, 0.0, 0.0, 0.0, 1.718470385746601E9, 0.0, 2024-06-15 11:53:05.746
124.0, 37149.71687194311, -65106.161249418416, 73875.37644808012, -187500.02235174447, -78284.23569014498, -187500.02235174447, -187500.02235174447, -1826.2269289764083, -0.352, 0.912, 0.012, 192.0, 0.0, 0.0, 0.0, 0.0, 0.0, 0.0, 0.0, 0.0, 0.0, 1.718470385746627E9, 0.0, 2024-06-15 11:53:05.746
125.0, 37029.82211468484, -65484.12924815765, 74671.79145476717, -187500.02235174447, -78809.9040162449, -187500.02235174447, -187500.02235174447, -2481.1553932613606, -0.352, 0.912, 0.012, 192.0, 0.0, 0.0, 0.0, 0.0, 0.0, 0.0, 0.0, 0.0, 0.0, 1.718470385746658E9, 0.0, 2024-06-15 11:53:05.746
126.0, 36871.05767381879, -62359.265966327905, 78619.7577261636, -187500.02235174447, -73707.6489576875, -187500.02235174447, -187500.02235174447, 2156.764525981489, -0.352, 0.912, 0.012, 192.0, 0.0, 0.0, 0.0, 0.0, 0.0, 0.0, 0.0, 0.0, 0.0, 1.7184703857466686E9, 0.0, 2024-06-15 11:53:05.746
127.0, 36979.821262338315, -61716.675664982286, 77979.73787543034, -187500.02235174447, -72360.21874668822, -187500.02235174447, -187500.02235174447, 3424.3319540419525, -0.352, 0.912, 0.012, 192.0, 0.0, 0.0, 0.0, 0.0, 0.0, 0.0, 0.0, 0.0, 0.0, 1.7184703857466948E9, 0.0, 2024-06-15 11:53:05.746
128.0, 37164.98311340608, -64965.769942494626, 73956.13330079714, -187500.02235174447, -77757.0027419332, -187500.02235174447, -187500.02235174447, -1421.548595613074, -0.352, 0.912, 0.012, 192.0, 0.0, 0.0, 0.0, 0.0, 0.0, 0.0, 0.0, 0.0, 0.0, 1.7184703857467055E9, 0.0, 2024-06-15 11:53:05.746
129.0, 37061.963923211566, -65785.40841167074, 74211.72549864359, -187500.02235174447, -79264.62790544366, -187500.02235174447, -187500.02235174447, -2815.8504147351287, -0.352, 0.912, 0.012, 192.0, 0.0, 0.0, 0.0, 0.0, 0.0, 0.0, 0.0, 0.0, 0.0, 1.7184703857467153E9, 0.0, 2024-06-15 11:53:05.746
130.0, 36881.0042001014, -62956.0575432846, 78112.95427238397, -187500.02235174447, -74492.5304642356, -187500.02235174447, -187500.02235174447, 1402.1696331703226, -0.352, 0.912, 0.012, 192.0, 0.0, 0.0, 0.0, 0.0, 0.0, 0.0, 0.0, 0.0, 0.0, 1.7184703857467256E9, 0.0, 2024-06-15 11:53:05.746
131.0, 36939.141087429656, -61374.82808528282, 78628.76547917908, -187500.02235174447, -71799.43583004903, -187500.02235174447, -187500.02235174447, 3985.874829992632, -0.354, 0.914, 0.01, 192.0, 244.0, 240.0, 28.0, 144.0, 0.0, 80.0, 0.0, 0.0, 0.0, 1.718470385746735E9, 0.0, 2024-06-15 11:53:05.746
132.0, 37152.06380511091, -64719.36431161932, 74225.0694900834, -187500.02235174447, -77053.07925380222, -187500.02235174447, -187500.02235174447, -866.5100772988889, -0.354, 0.914, 0.01, 192.0, 0.0, 0.0, 0.0, 0.0, 0.0, 0.0, 0.0, 0.0, 0.0, 1.718470385746745E9, 0.0, 2024-06-15 11:53:05.746
133.0, 37086.17086245667, -66006.42246084481, 73832.0811190702, -187500.02235174447, -79580.16748191923, -187500.02235174447, -187500.02235174447, -3040.597205233241, -0.354, 0.914, 0.01, 192.0, 0.0, 0.0, 0.0, 0.0, 0.0, 0.0, 0.0, 0.0, 0.0, 1.7184703857467556E9, 0.0, 2024-06-15 11:53:05.746
134.0, 36900.22670033297, -63676.90130196826, 77435.51760143253, -187500.02235174447, -75478.13063599238, -187500.02235174447, -187500.02235174447, 466.1232788709735, -0.354, 0.914, 0.01, 192.0, 0.0, 0.0, 0.0, 0.0, 0.0, 0.0, 0.0, 0.0, 0.0, 1.718470385746766E9, 0.0, 2024-06-15 11:53:05.746
135.0, 36901.90308116711, -61174.42234449653, 79186.37444810563, -187500.02235174447, -71478.12950350398, -187500.02235174447, -187500.02235174447, 4326.783636424975, -0.354, 0.914, 0.01, 192.0, 0.0, 0.0, 0.0, 0.0, 0.0, 0.0, 0.0, 0.0, 0.0, 1.718470385746786E9, 0.0, 2024-06-15 11:53:05.746
136.0, 37134.808258391415, -64331.44978659747, 74698.77001032472, -187500.02235174447, -76169.73831292849, -187500.02235174447, -187500.02235174447, -129.88598702978933, -0.354, 0.914, 0.01, 192.0, 0.0, 0.0, 0.0, 0.0, 0.0, 0.0, 0.0, 0.0, 0.0, 1.718470385746818E9, 0.0, 2024-06-15 11:53:05.746
137.0, 37117.15038027172, -66187.15866651043, 73523.89526652041, -187500.02235174447, -79764.39055971988, -187500.02235174447, -187500.02235174447, -3180.854401690293, -0.354, 0.914, 0.01, 192.0, 0.0, 0.0, 0.0, 0.0, 0.0, 0.0, 0.0, 0.0, 0.0, 1.7184703857468288E9, 0.0, 2024-06-15 11:53:05.746
138.0, 36921.77378198788, -64371.01237428336, 76729.62715978947, -187500.02235174447, -76458.63461001332, -187500.02235174447, -187500.02235174447, -455.3944415324261, -0.354, 0.914, 0.01, 192.0, 0.0, 0.0, 0.0, 0.0, 0.0, 0.0, 0.0, 0.0, 0.0, 1.7184703857468393E9, 0.0, 2024-06-15 11:53:05.746
139.0, 36881.69710417952, -61154.171664020025, 79571.00326669255, -187500.02235174447, -71414.51643878418, -187500.02235174447, -187500.02235174447, 4409.753311843075, -0.354, 0.914, 0.01, 192.0, 0.0, 0.0, 0.0, 0.0, 0.0, 0.0, 0.0, 0.0, 0.0, 1.71847038574685E9, 0.0, 2024-06-15 11:53:05.746
140.0, 37116.36806921579, -63840.69488533675, 75350.16689898574, -187500.02235174447, -75163.12750138373, -187500.02235174447, -187500.02235174447, 748.1352386635826, -0.354, 0.914, 0.01, 192.0, 0.0, 0.0, 0.0, 0.0, 0.0, 0.0, 0.0, 0.0, 0.0, 1.7184703857468607E9, 0.0, 2024-06-15 11:53:05.746
141.0, 37149.67216845419, -66302.13603998853, 73305.80929586999, -187500.02235174447, -79763.85411785294, -187500.02235174447, -187500.02235174447, -3185.9505994261026, -0.354, 0.914, 0.01, 192.0, 0.0, 0.0, 0.0, 0.0, 0.0, 0.0, 0.0, 0.0, 0.0, 1.718470385746874E9, 0.0, 2024-06-15 11:53:05.746
142.0, 36952.775651547396, -65096.97468244728, 75961.08477843819, -187500.02235174447, -77484.17734911172, -187500.02235174447, -187500.02235174447, -1391.1055196649456, -0.352, 0.916, 0.006, 192.0, 245.0, 0.0, 28.0, 160.0, 0.0, 48.0, 0.0, 0.0, 0.0, 1.7184703857469006E9, 0.0, 2024-06-15 11:53:05.746
143.0, 36853.15392651009, -61431.66857143266, 79646.52981120704, -187500.02235174447, -71749.94906782497, -187500.02235174447, -187500.02235174447, 4094.839584212254, -0.352, 0.916, 0.006, 192.0, 0.0, 0.0, 0.0, 0.0, 0.0, 0.0, 0.0, 0.0, 0.0, 1.7184703857469115E9, 0.0, 2024-06-15 11:53:05.746
144.0, 37081.70051356561, -63330.85159431119, 76123.2690362059, -187500.02235174447, -74175.69448658163, -187500.02235174447, -187500.02235174447, 1649.536389057206, -0.352, 0.916, 0.006, 192.0, 0.0, 0.0, 0.0, 0.0, 0.0, 0.0, 0.0, 0.0, 0.0, 1.7184703857469225E9, 0.0, 2024-06-15 11:53:05.746
145.0, 37164.53607851697, -66314.96594130587, 73214.65888198125, -187500.02235174447, -79551.33373157188, -187500.02235174447, -187500.02235174447, -3028.236690549456, -0.352, 0.916, 0.006, 192.0, 0.0, 0.0, 0.0, 0.0, 0.0, 0.0, 0.0, 0.0, 0.0, 1.7184703857469337E9, 0.0, 2024-06-15 11:53:05.746
146.0, 36983.50930017344, -65681.58455867584, 75277.54608125045, -187500.02235174447, -78351.55914444437, -187500.02235174447, -187500.02235174447, -2136.9832321385425, -0.352, 0.916, 0.006, 192.0, 0.0, 0.0, 0.0, 0.0, 0.0, 0.0, 0.0, 0.0, 0.0, 1.7184703857469437E9, 0.0, 2024-06-15 11:53:05.746
147.0, 36844.30263570579, -61865.4041725879, 79515.86151312132, -187500.02235174447, -72279.99833583813, -187500.02235174447, -187500.02235174447, 3580.056557662077, -0.352, 0.916, 0.006, 192.0, 0.0, 0.0, 0.0, 0.0, 0.0, 0.0, 0.0, 0.0, 0.0, 1.7184703857469816E9, 0.0, 2024-06-15 11:53:05.746
148.0, 37040.79682121239, -62733.99296212113, 77026.59243662268, -187500.02235174447, -73129.11875595078, -187500.02235174447, -187500.02235174447, 2651.3415755440683, -0.352, 0.916, 0.006, 192.0, 0.0, 0.0, 0.0, 0.0, 0.0, 0.0, 0.0, 0.0, 0.0, 1.7184703857469923E9, 0.0, 2024-06-15 11:53:05.746
149.0, 37178.46121531263, -66200.70382365034, 73254.40028362277, -187500.02235174447, -79083.33290616667, -187500.02235174447, -187500.02235174447, -2662.740965216275, -0.352, 0.916, 0.006, 192.0, 0.0, 0.0, 0.0, 0.0, 0.0, 0.0, 0.0, 0.0, 0.0, 1.7184703857470033E9, 0.0, 2024-06-15 11:53:05.747
150.0, 37028.65982397316, -66121.37748257846, 74674.22779491279, -187500.02235174447, -79039.67994924546, -187500.02235174447, -187500.02235174447, -2699.4425296118893, -0.352, 0.916, 0.006, 192.0, 0.0, 0.0, 0.0, 0.0, 0.0, 0.0, 0.0, 0.0, 0.0, 1.7184703857470136E9, 0.0, 2024-06-15 11:53:05.747
151.0, 36863.48043244844, -62437.74294111049, 79120.70502289594, -187500.02235174447, -73093.42302005566, -187500.02235174447, -187500.02235174447, 2807.289696608746, -0.352, 0.916, 0.006, 192.0, 0.0, 0.0, 0.0, 0.0, 0.0, 0.0, 0.0, 0.0, 0.0, 1.7184703857470236E9, 0.0, 2024-06-15 11:53:05.747
152.0, 37008.342088263285, -62129.17710890497, 77947.30549422569, -187500.02235174447, -72199.17442788773, -187500.02235174447, -187500.02235174447, 3588.2596478771748, -0.35000000000000003, 0.914, 0.008, 192.0, 245.0, 16.0, 28.0, 144.0, 0.0, 64.0, 0.0, 0.0, 0.0, 1.7184703857470336E9, 0.0, 2024-06-15 11:53:05.747
153.0, 37196.49907308806, -65925.0621110275, 73473.46973102924, -187500.02235174447, -78370.28990629791, -187500.02235174447, -187500.02235174447, -2068.139859216197, -0.35000000000000003, 0.914, 0.008, 192.0, 0.0, 0.0, 0.0, 0.0, 0.0, 0.0, 0.0, 0.0, 0.0, 1.7184703857470443E9, 0.0, 2024-06-15 11:53:05.747
154.0, 37073.989161728525, -66553.81668255529, 74096.56931120984, -187500.02235174447, -79654.93406712223, -187500.02235174447, -187500.02235174447, -3204.591954301829, -0.35000000000000003, 0.914, 0.008, 192.0, 0.0, 0.0, 0.0, 0.0, 0.0, 0.0, 0.0, 0.0, 0.0, 1.7184703857470596E9, 0.0, 2024-06-15 11:53:05.747
155.0, 36860.753519624894, -63120.92401038695, 78583.52554840155, -187500.02235174447, -73997.37226931719, -187500.02235174447, -187500.02235174447, 1930.7660377938794, -0.35000000000000003, 0.914, 0.008, 192.0, 0.0, 0.0, 0.0, 0.0, 0.0, 0.0, 0.0, 0.0, 0.0, 1.7184703857470722E9, 0.0, 2024-06-15 11:53:05.747
156.0, 36940.01280546341, -61558.62647993881, 78829.95353102131, -187500.02235174447, -71299.4273065838, -187500.02235174447, -187500.02235174447, 4523.389580653856, -0.35000000000000003, 0.914, 0.008, 192.0, 0.0, 0.0, 0.0, 0.0, 0.0, 0.0, 0.0, 0.0, 0.0, 1.7184703857470827E9, 0.0, 2024-06-15 11:53:05.747
157.0, 37179.3776368353, -65636.47873836503, 73700.16112329497, -187500.02235174447, -77590.37048701888, -187500.02235174447, -187500.02235174447, -1445.576720902529, -0.35000000000000003, 0.914, 0.008, 192.0, 0.0, 0.0, 0.0, 0.0, 0.0, 0.0, 0.0, 0.0, 0.0, 1.7184703857470927E9, 0.0, 2024-06-15 11:53:05.747
158.0, 37091.78115031495, -66906.86248622686, 73554.29363897964, -187500.02235174447, -80139.38577644656, -187500.02235174447, -187500.02235174447, -3611.3266481550513, -0.35000000000000003, 0.914, 0.008, 192.0, 0.0, 0.0, 0.0, 0.0, 0.0, 0.0, 0.0, 0.0, 0.0, 1.7184703857471054E9, 0.0, 2024-06-15 11:53:05.747
159.0, 36863.569839426265, -63824.44516711774, 77945.87498258054, -187500.02235174447, -74963.68288560903, -187500.02235174447, -187500.02235174447, 991.0763491483151, -0.35000000000000003, 0.914, 0.008, 192.0, 0.0, 0.0, 0.0, 0.0, 0.0, 0.0, 0.0, 0.0, 0.0, 1.7184703857471316E9, 0.0, 2024-06-15 11:53:05.747
160.0, 36895.59988923072, -61164.74403914739, 79570.5785835479, -187500.02235174447, -70687.77181956432, -187500.02235174447, -187500.02235174447, 5151.428896359074, -0.35000000000000003, 0.914, 0.008, 192.0, 0.0, 0.0, 0.0, 0.0, 0.0, 0.0, 0.0, 0.0, 0.0, 1.7184703857471416E9, 0.0, 2024-06-15 11:53:05.747
161.0, 37166.27951458449, -65150.50711041774, 74195.98987054704, -187500.02235174447, -76560.20093681823, -187500.02235174447, -187500.02235174447, -571.5788092111122, -0.35000000000000003, 0.914, 0.008, 192.0, 0.0, 0.0, 0.0, 0.0, 0.0, 0.0, 0.0, 0.0, 0.0, 1.7184703857471514E9, 0.0, 2024-06-15 11:53:05.747
162.0, 37125.77815363147, -67067.0350869936, 73173.53167218348, -187500.02235174447, -80307.87322615067, -187500.02235174447, -187500.02235174447, -3742.7772572967124, -0.356, 0.922, 0.008, 192.0, 244.0, 224.0, 28.0, 208.0, 0.0, 64.0, 0.0, 0.0, 0.0, 1.7184703857471633E9, 0.0, 2024-06-15 11:53:05.747
163.0, 36903.199482345524, -64612.00888300048, 77108.1539521401, -187500.02235174447, -76090.41197185659, -187500.02235174447, -187500.02235174447, -78.4769747825831, -0.356, 0.922, 0.008, 192.0, 0.0, 0.0, 0.0, 0.0, 0.0, 0.0, 0.0, 0.0, 0.0, 1.7184703857471733E9, 0.0, 2024-06-15 11:53:05.747
164.0, 36865.89442084962, -61080.03092766177, 80021.70384188936, -187500.02235174447, -70535.04234970121, -187500.02235174447, -187500.02235174447, 5332.0309915579555, -0.356, 0.922, 0.008, 192.0, 0.0, 0.0, 0.0, 0.0, 0.0, 0.0, 0.0, 0.0, 0.0, 1.718470385747183E9, 0.0, 2024-06-15 11:53:05.747
165.0, 37146.09588934134, -64541.19855656607, 74923.89678047858, -187500.02235174447, -75387.6507744373, -187500.02235174447, -187500.02235174447, 484.42935757987, -0.356, 0.922, 0.008, 192.0, 0.0, 0.0, 0.0, 0.0, 0.0, 0.0, 0.0, 0.0, 0.0, 1.7184703857471929E9, 0.0, 2024-06-15 11:53:05.747
166.0, 37162.25620058253, -67184.85113201752, 72892.704354847, -187500.02235174447, -80318.8032291893, -187500.02235174447, -187500.02235174447, -3772.661539633458, -0.356, 0.922, 0.008, 192.0, 0.0, 0.0, 0.0, 0.0, 0.0, 0.0, 0.0, 0.0, 0.0, 1.7184703857472026E9, 0.0, 2024-06-15 11:53:05.747
167.0, 36942.31503514231, -65421.298494493785, 76233.93252300413, -187500.02235174447, -77268.66182907365, -187500.02235174447, -187500.02235174447, -1186.14002300978, -0.356, 0.922, 0.008, 192.0, 0.0, 0.0, 0.0, 0.0, 0.0, 0.0, 0.0, 0.0, 0.0, 1.7184703857472126E9, 0.0, 2024-06-15 11:53:05.747
168.0, 36831.13745822161, -61254.19572045752, 80221.61784429764, -187500.02235174447, -70757.01752388687, -187500.02235174447, -187500.02235174447, 5111.016942383879, -0.356, 0.922, 0.008, 192.0, 0.0, 0.0, 0.0, 0.0, 0.0, 0.0, 0.0, 0.0, 0.0, 1.7184703857472224E9, 0.0, 2024-06-15 11:53:05.747
169.0, 37103.694630109625, -63774.98075663814, 75879.43385594296, -187500.02235174447, -74072.67529638711, -187500.02235174447, -187500.02235174447, 1705.1698810064652, -0.356, 0.922, 0.008, 192.0, 0.0, 0.0, 0.0, 0.0, 0.0, 0.0, 0.0, 0.0, 0.0, 1.7184703857472322E9, 0.0, 2024-06-15 11:53:05.747
170.0, 37177.99182867906, -67117.34886376248, 72774.35186795615, -187500.02235174447, -80005.20825448135, -187500.02235174447, -187500.02235174447, -3542.8185513995354, -0.356, 0.922, 0.008, 192.0, 0.0, 0.0, 0.0, 0.0, 0.0, 0.0, 0.0, 0.0, 0.0, 1.7184703857472425E9, 0.0, 2024-06-15 11:53:05.747
171.0, 36984.850404840756, -66110.64864523991, 75388.9471756157, -187500.02235174447, -78296.37268738421, -187500.02235174447, -187500.02235174447, -2115.257336527984, -0.356, 0.922, 0.008, 192.0, 0.0, 0.0, 0.0, 0.0, 0.0, 0.0, 0.0, 0.0, 0.0, 1.7184703857472522E9, 0.0, 2024-06-15 11:53:05.747
172.0, 36832.165638466555, -61713.099385869435, 80074.47631054834, -187500.02235174447, -71373.92567085334, -187500.02235174447, -187500.02235174447, 4498.422682097278, -0.35000000000000003, 0.926, 0.016, 192.0, 245.0, 16.0, 28.0, 240.0, 0.0, 128.0, 0.0, 0.0, 0.0, 1.7184703857472672E9, 0.0, 2024-06-15 11:53:05.747
173.0, 37058.186478398624, -63012.786270712175, 76932.24572327682, -187500.02235174447, -72818.69772895548, -187500.02235174447, -187500.02235174447, 2928.190282367502, -0.35000000000000003, 0.926, 0.016, 192.0, 0.0, 0.0, 0.0, 0.0, 0.0, 0.0, 0.0, 0.0, 0.0, 1.7184703857472775E9, 0.0, 2024-06-15 11:53:05.747
174.0, 37199.36009637834, -66979.05862081751, 72795.96600484443, -187500.02235174447, -79502.80809435941, -187500.02235174447, -187500.02235174447, -3152.2888722764105, -0.35000000000000003, 0.926, 0.016, 192.0, 0.0, 0.0, 0.0, 0.0, 0.0, 0.0, 0.0, 0.0, 0.0, 1.718470385747308E9, 0.0, 2024-06-15 11:53:05.747
175.0, 37017.573358723326, -66654.3324773708, 74654.33474234758, -187500.02235174447, -79132.17146780151, -187500.02235174447, -187500.02235174447, -2843.1418947150582, -0.35000000000000003, 0.926, 0.016, 192.0, 0.0, 0.0, 0.0, 0.0, 0.0, 0.0, 0.0, 0.0, 0.0, 1.71847038574732E9, 0.0, 2024-06-15 11:53:05.747
176.0, 36823.62727208463, -62346.883099899664, 79634.72809013464, -187500.02235174447, -72269.91769908878, -187500.02235174447, -187500.02235174447, 3591.433595589828, -0.35000000000000003, 0.926, 0.016, 192.0, 0.0, 0.0, 0.0, 0.0, 0.0, 0.0, 0.0, 0.0, 0.0, 1.718470385747334E9, 0.0, 2024-06-15 11:53:05.747
177.0, 37004.631698683705, -62286.68985208152, 77981.14603533102, -187500.02235174447, -71703.0774597022, -187500.02235174447, -187500.02235174447, 4029.125455513651, -0.35000000000000003, 0.926, 0.016, 192.0, 0.0, 0.0, 0.0, 0.0, 0.0, 0.0, 0.0, 0.0, 0.0, 1.7184703857473445E9, 0.0, 2024-06-15 11:53:05.747
178.0, 37208.18903543819, -66639.98265743049, 73025.20549597807, -187500.02235174447, -78700.8722067919, -187500.02235174447, -187500.02235174447, -2508.5809837080224, -0.35000000000000003, 0.926, 0.016, 192.0, 0.0, 0.0, 0.0, 0.0, 0.0, 0.0, 0.0, 0.0, 0.0, 1.7184703857473724E9, 0.0, 2024-06-15 11:53:05.747
179.0, 37072.446891361105, -67044.43747334927, 74022.04859519584, -187500.02235174447, -79731.51114362612, -187500.02235174447, -187500.02235174447, -3348.0454502159896, -0.35000000000000003, 0.926, 0.016, 192.0, 0.0, 0.0, 0.0, 0.0, 0.0, 0.0, 0.0, 0.0, 0.0, 1.7184703857473829E9, 0.0, 2024-06-15 11:53:05.747
180.0, 36849.10826076368, -63163.39232485203, 78938.67241605192, -187500.02235174447, -73405.07339299601, -187500.02235174447, -187500.02235174447, 2456.0320324935956, -0.35000000000000003, 0.926, 0.016, 192.0, 0.0, 0.0, 0.0, 0.0, 0.0, 0.0, 0.0, 0.0, 0.0, 1.7184703857473924E9, 0.0, 2024-06-15 11:53:05.747
181.0, 36953.98264574798, -61709.388996289854, 78925.9319217124, -187500.02235174447, -70847.3185714863, -187500.02235174447, -187500.02235174447, 4897.580134580152, -0.35000000000000003, 0.926, 0.016, 192.0, 0.0, 0.0, 0.0, 0.0, 0.0, 0.0, 0.0, 0.0, 0.0, 1.7184703857474024E9, 0.0, 2024-06-15 11:53:05.747
182.0, 37196.58848006588, -66147.77489278017, 73453.30845753055, -187500.02235174447, -77668.84746180147, -187500.02235174447, -187500.02235174447, -1639.0310691632117, -0.35000000000000003, 0.926, 0.016, 192.0, 0.0, 0.0, 0.0, 0.0, 0.0, 0.0, 0.0, 0.0, 0.0, 1.7184703857474127E9, 0.0, 2024-06-15 11:53:05.747
183.0, 37091.26706019248, -67308.34452013309, 73497.92253946335, -187500.02235174447, -80111.42374413298, -187500.02235174447, -187500.02235174447, -3658.3994219779283, -0.34600000000000003, 0.93, 0.012, 192.0, 245.0, 48.0, 29.0, 16.0, 0.0, 96.0, 0.0, 0.0, 0.0, 1.718470385747423E9, 0.0, 2024-06-15 11:53:05.747
184.0, 36869.04601681781, -64027.868393405486, 78091.13896979559, -187500.02235174447, -74630.39602403594, -187500.02235174447, -187500.02235174447, 1254.357547087377, -0.34600000000000003, 0.93, 0.012, 192.0, 0.0, 0.0, 0.0, 0.0, 0.0, 0.0, 0.0, 0.0, 0.0, 1.7184703857474551E9, 0.0, 2024-06-15 11:53:05.747
185.0, 36911.00024116042, -61398.096251260795, 79646.9544943517, -187500.02235174447, -70371.13700761045, -187500.02235174447, -187500.02235174447, 5386.904524195734, -0.34600000000000003, 0.93, 0.012, 192.0, 0.0, 0.0, 0.0, 0.0, 0.0, 0.0, 0.0, 0.0, 0.0, 1.7184703857474816E9, 0.0, 2024-06-15 11:53:05.747
186.0, 37186.91017471674, -65593.36222331075, 74056.62674386821, -187500.02235174447, -76530.45076494823, -187500.02235174447, -187500.02235174447, -645.3619176580809, -0.34600000000000003, 0.93, 0.012, 192.0, 0.0, 0.0, 0.0, 0.0, 0.0, 0.0, 0.0, 0.0, 0.0, 1.7184703857474916E9, 0.0, 2024-06-15 11:53:05.747
187.0, 37143.97247361809, -67564.54021507982, 73053.7933771364, -187500.02235174447, -80368.80408153583, -187500.02235174447, -187500.02235174447, -3894.9926370373532, -0.34600000000000003, 0.93, 0.012, 192.0, 0.0, 0.0, 0.0, 0.0, 0.0, 0.0, 0.0, 0.0, 0.0, 1.7184703857475016E9, 0.0, 2024-06-15 11:53:05.747
0.0, 0.0, 0.0, 0.0, 0.0, 0.0, 0.0, 0.0, 0.0, -0.34600000000000003, 0.93, 0.012, 192.0, 0.0, 0.0, 0.0, 0.0, 0.0, 0.0, 0.0, 0.0, 0.0, 1.7184703858188517E9, 0.0, 2024-06-15 11:53:05.818
1.0, 36931.18386640357, -90331.04364049956, 75326.07171846292, -187500.02235174447, -82056.2713809337, -187500.02235174447, -187500.02235174447, -8227.475968298431, -0.258, 0.964, -0.052000000000000005, 192.0, 247.0, 240.0, 30.0, 32.0, 254.0, 96.0, 0.0, 0.0, 0.0, 1.7184703862968416E9, 0.0, 2024-06-15 11:53:06.296
2.0, 37006.97863185151, -90975.8691162907, 76408.1867227777, -187500.02235174447, -80461.92144893664, -187500.02235174447, -187500.02235174447, -10370.00243306189, -0.258, 0.964, -0.052000000000000005, 192.0, 0.0, 0.0, 0.0, 0.0, 0.0, 0.0, 0.0, 0.0, 0.0, 1.7184703862969327E9, 0.0, 2024-06-15 11:53:06.296
3.0, 37018.89211164619, -91648.88014184001, 77214.50355225844, -187500.02235174447, -78834.04390025663, -187500.02235174447, -187500.02235174447, -13389.074908384671, -0.258, 0.964, -0.052000000000000005, 192.0, 0.0, 0.0, 0.0, 0.0, 0.0, 0.0, 0.0, 0.0, 0.0, 1.7184703862969844E9, 0.0, 2024-06-15 11:53:06.296
4.0, 36937.35294787323, -91261.03267205151, 76228.34458689029, -187500.02235174447, -79949.08302415408, -187500.02235174447, -187500.02235174447, -11761.08560098238, -0.258, 0.964, -0.052000000000000005, 192.0, 0.0, 0.0, 0.0, 0.0, 0.0, 0.0, 0.0, 0.0, 0.0, 1.7184703862970064E9, 0.0, 2024-06-15 11:53:06.297
5.0, 36947.92532300059, -90493.69728490083, 75282.77638945299, -187500.02235174447, -82069.14598573995, -187500.02235174447, -187500.02235174447, -8719.661381204294, -0.258, 0.964, -0.052000000000000005, 192.0, 0.0, 0.0, 0.0, 0.0, 0.0, 0.0, 0.0, 0.0, 0.0, 1.7184703862970183E9, 0.0, 2024-06-15 11:53:06.297
6.0, 37017.05926860085, -90893.39117925063, 76136.1212892677, -187500.02235174447, -81003.68303104438, -187500.02235174447, -187500.02235174447, -9973.393079446922, -0.258, 0.964, -0.052000000000000005, 192.0, 0.0, 0.0, 0.0, 0.0, 0.0, 0.0, 0.0, 0.0, 0.0, 1.7184703862970295E9, 0.0, 2024-06-15 11:53:06.297
7.0, 37027.31871930584, -91726.10541893309, 77152.70097883952, -187500.02235174447, -79105.52818841078, -187500.02235174447, -187500.02235174447, -13483.086345563692, -0.258, 0.964, -0.052000000000000005, 192.0, 0.0, 0.0, 0.0, 0.0, 0.0, 0.0, 0.0, 0.0, 0.0, 1.718470386297056E9, 0.0, 2024-06-15 11:53:06.297
8.0, 36965.896125542655, -91567.8103647006, 76399.69305988468, -187500.02235174447, -79775.34291450298, -187500.02235174447, -187500.02235174447, -12722.65764744969, -0.216, 0.978, -0.082, 192.0, 249.0, 64.0, 30.0, 144.0, 253.0, 112.0, 0.0, 0.0, 0.0, 1.7184703862970667E9, 0.0, 2024-06-15 11:53:06.297
9.0, 36933.0167094489, -90659.23430433683, 75320.14850618226, -187500.02235174447, -81926.72067007073, -187500.02235174447, -187500.02235174447, -9353.80272314581, -0.216, 0.978, -0.082, 192.0, 0.0, 0.0, 0.0, 0.0, 0.0, 0.0, 0.0, 0.0, 0.0, 1.7184703862970767E9, 0.0, 2024-06-15 11:53:06.297
10.0, 36995.17691077911, -90804.8782712076, 75854.26579168628, -187500.02235174447, -81493.8344352048, -187500.02235174447, -187500.02235174447, -9667.397697853768, -0.216, 0.978, -0.082, 192.0, 0.0, 0.0, 0.0, 0.0, 0.0, 0.0, 0.0, 0.0, 0.0, 1.7184703862970865E9, 0.0, 2024-06-15 11:53:06.297
11.0, 37048.37406258274, -91718.10349441809, 77053.97332358043, -187500.02235174447, -79438.7479947505, -187500.02235174447, -187500.02235174447, -13377.206132078903, -0.216, 0.978, -0.082, 192.0, 0.0, 0.0, 0.0, 0.0, 0.0, 0.0, 0.0, 0.0, 0.0, 1.718470386297096E9, 0.0, 2024-06-15 11:53:06.297
12.0, 36999.64725967017, -91762.2034862284, 76609.68769904229, -187500.02235174447, -79621.80878183947, -187500.02235174447, -187500.02235174447, -13516.032816890815, -0.216, 0.978, -0.082, 192.0, 0.0, 0.0, 0.0, 0.0, 0.0, 0.0, 0.0, 0.0, 0.0, 1.7184703862971056E9, 0.0, 2024-06-15 11:53:06.297
13.0, 36954.94377075956, -90928.61752851219, 75387.6507744373, -187500.02235174447, -81787.64811606982, -187500.02235174447, -187500.02235174447, -10187.947474473414, -0.216, 0.978, -0.082, 192.0, 0.0, 0.0, 0.0, 0.0, 0.0, 0.0, 0.0, 0.0, 0.0, 1.7184703862971156E9, 0.0, 2024-06-15 11:53:06.297
14.0, 37011.78425690941, -90817.01526844685, 75613.60455913599, -187500.02235174447, -82015.30063334711, -187500.02235174447, -187500.02235174447, -9558.455295378602, -0.216, 0.978, -0.082, 192.0, 0.0, 0.0, 0.0, 0.0, 0.0, 0.0, 0.0, 0.0, 0.0, 1.71847038629713E9, 0.0, 2024-06-15 11:53:06.297
15.0, 37064.981408713036, -91767.90318106451, 76888.83863554461, -187500.02235174447, -79970.45129185334, -187500.02235174447, -187500.02235174447, -13202.70606311632, -0.216, 0.978, -0.082, 192.0, 0.0, 0.0, 0.0, 0.0, 0.0, 0.0, 0.0, 0.0, 0.0, 1.7184703862971401E9, 0.0, 2024-06-15 11:53:06.297
16.0, 36997.41208522464, -92003.19999494553, 76791.0721052971, -187500.02235174447, -79660.85727940289, -187500.02235174447, -187500.02235174447, -14267.945500367345, -0.216, 0.978, -0.082, 192.0, 0.0, 0.0, 0.0, 0.0, 0.0, 0.0, 0.0, 0.0, 0.0, 1.7184703862971497E9, 0.0, 2024-06-15 11:53:06.297
17.0, 36951.926285258094, -91197.777235243, 75576.34420112899, -187500.02235174447, -81571.5514506759, -187500.02235174447, -187500.02235174447, -11118.852927548043, -0.216, 0.978, -0.082, 192.0, 0.0, 0.0, 0.0, 0.0, 0.0, 0.0, 0.0, 0.0, 0.0, 1.7184703862971592E9, 0.0, 2024-06-15 11:53:06.297
18.0, 36998.686134658594, -90811.89671896657, 75481.30458370503, -187500.02235174447, -82380.34932379119, -187500.02235174447, -187500.02235174447, -9583.623359635278, -0.2, 0.978, -0.10200000000000001, 192.0, 249.0, 192.0, 30.0, 144.0, 252.0, 208.0, 0.0, 0.0, 0.0, 1.7184703862971687E9, 0.0, 2024-06-15 11:53:06.297
19.0, 37068.49063259252, -91673.35530201856, 76745.00515997472, -187500.02235174447, -80459.32864657983, -187500.02235174447, -187500.02235174447, -12814.702131116645, -0.2, 0.978, -0.10200000000000001, 192.0, 0.0, 0.0, 0.0, 0.0, 0.0, 0.0, 0.0, 0.0, 0.0, 1.7184703862971785E9, 0.0, 2024-06-15 11:53:06.297
20.0, 37031.342033307796, -92095.75856873496, 76987.923918715, -187500.02235174447, -79683.25372734711, -187500.02235174447, -187500.02235174447, -14745.378761932703, -0.2, 0.978, -0.10200000000000001, 192.0, 0.0, 0.0, 0.0, 0.0, 0.0, 0.0, 0.0, 0.0, 0.0, 1.7184703862971876E9, 0.0, 2024-06-15 11:53:06.297
21.0, 36970.61234362273, -91490.58508760751, 75780.97442161733, -187500.02235174447, -81291.26057520635, -187500.02235174447, -187500.02235174447, -12134.203271174822, -0.2, 0.978, -0.10200000000000001, 192.0, 0.0, 0.0, 0.0, 0.0, 0.0, 0.0, 0.0, 0.0, 0.0, 1.7184703862971973E9, 0.0, 2024-06-15 11:53:06.297
22.0, 37004.02820158341, -90922.85077844272, 75365.56725091544, -187500.02235174447, -82613.2992045044, -187500.02235174447, -187500.02235174447, -9898.559439010554, -0.2, 0.978, -0.10200000000000001, 192.0, 0.0, 0.0, 0.0, 0.0, 0.0, 0.0, 0.0, 0.0, 0.0, 1.7184703862972069E9, 0.0, 2024-06-15 11:53:06.297
23.0, 37076.62666757425, -91517.18366350934, 76575.78010270359, -187500.02235174447, -80979.9678301773, -187500.02235174447, -187500.02235174447, -12283.37881366954, -0.2, 0.978, -0.10200000000000001, 192.0, 0.0, 0.0, 0.0, 0.0, 0.0, 0.0, 0.0, 0.0, 0.0, 1.718470386297217E9, 0.0, 2024-06-15 11:53:06.297
24.0, 37060.44400458861, -92134.74001106502, 77107.50575155088, -187500.02235174447, -79843.98512172521, -187500.02235174447, -187500.02235174447, -14976.495799600578, -0.2, 0.978, -0.10200000000000001, 192.0, 0.0, 0.0, 0.0, 0.0, 0.0, 0.0, 0.0, 0.0, 0.0, 1.7184703862972262E9, 0.0, 2024-06-15 11:53:06.297
25.0, 36978.97189604901, -91754.89446579153, 76007.93403481651, -187500.02235174447, -81072.70521792237, -187500.02235174447, -187500.02235174447, -13080.218503501237, -0.2, 0.978, -0.10200000000000001, 192.0, 0.0, 0.0, 0.0, 0.0, 0.0, 0.0, 0.0, 0.0, 0.0, 1.7184703862972355E9, 0.0, 2024-06-15 11:53:06.297
26.0, 36991.60063166626, -91055.75425097397, 75310.2243316441, -187500.02235174447, -82728.4777436826, -187500.02235174447, -187500.02235174447, -10332.116226210144, -0.2, 0.978, -0.10200000000000001, 192.0, 0.0, 0.0, 0.0, 0.0, 0.0, 0.0, 0.0, 0.0, 0.0, 1.718470386297245E9, 0.0, 2024-06-15 11:53:06.297
27.0, 37073.005684972486, -91465.72994777322, 76326.58050377137, -187500.02235174447, -81548.81972656486, -187500.02235174447, -187500.02235174447, -11906.863678319893, -0.2, 0.978, -0.10200000000000001, 192.0, 0.0, 0.0, 0.0, 0.0, 0.0, 0.0, 0.0, 0.0, 0.0, 1.7184703862972548E9, 0.0, 2024-06-15 11:53:06.297
28.0, 37084.29331592242, -92231.70187851213, 77132.0032634739, -187500.02235174447, -80142.24679973684, -187500.02235174447, -187500.02235174447, -15159.087200055981, -0.2, 0.978, -0.10200000000000001, 192.0, 0.0, 0.0, 0.0, 0.0, 0.0, 0.0, 0.0, 0.0, 0.0, 1.718470386297264E9, 0.0, 2024-06-15 11:53:06.297
29.0, 37003.380000994206, -92064.19790556407, 76225.75178453348, -187500.02235174447, -80969.68602772785, -187500.02235174447, -187500.02235174447, -14077.151009696843, -0.192, 0.976, -0.10400000000000001, 192.0, 250.0, 0.0, 30.0, 128.0, 252.0, 192.0, 0.0, 0.0, 0.0, 1.7184703862972736E9, 0.0, 2024-06-15 11:53:06.297
30.0, 36994.305192745356, -91290.6487334548, 75323.277750406, -187500.02235174447, -82749.53308695949, -187500.02235174447, -187500.02235174447, -11045.449798756814, -0.192, 0.976, -0.10400000000000001, 192.0, 0.0, 0.0, 0.0, 0.0, 0.0, 0.0, 0.0, 0.0, 0.0, 1.7184703862972832E9, 0.0, 2024-06-15 11:53:06.297
31.0, 37059.61699004376, -91388.1246910244, 76123.87253330619, -187500.02235174447, -82064.87680254898, -187500.02235174447, -187500.02235174447, -11580.975244161516, -0.192, 0.976, -0.10400000000000001, 192.0, 0.0, 0.0, 0.0, 0.0, 0.0, 0.0, 0.0, 0.0, 0.0, 1.7184703862972925E9, 0.0, 2024-06-15 11:53:06.297
32.0, 37097.23497596204, -92117.50681608997, 77188.30730775683, -187500.02235174447, -80397.0790382718, -187500.02235174447, -187500.02235174447, -14943.437569551179, -0.192, 0.976, -0.10400000000000001, 192.0, 0.0, 0.0, 0.0, 0.0, 0.0, 0.0, 0.0, 0.0, 0.0, 1.718470386297302E9, 0.0, 2024-06-15 11:53:06.297
33.0, 37037.220542099545, -92238.83208499338, 76469.54226130752, -187500.02235174447, -80825.18199982429, -187500.02235174447, -187500.02235174447, -14833.310524619881, -0.192, 0.976, -0.10400000000000001, 192.0, 0.0, 0.0, 0.0, 0.0, 0.0, 0.0, 0.0, 0.0, 0.0, 1.7184703862973115E9, 0.0, 2024-06-15 11:53:06.297
34.0, 36996.56271893534, -91688.17450859243, 75313.62179680131, -187500.02235174447, -82683.28251639397, -187500.02235174447, -187500.02235174447, -12051.43476145682, -0.192, 0.976, -0.10400000000000001, 192.0, 0.0, 0.0, 0.0, 0.0, 0.0, 0.0, 0.0, 0.0, 0.0, 1.718470386297321E9, 0.0, 2024-06-15 11:53:06.297
35.0, 37038.829867700326, -91365.46002214671, 75935.20145835895, -187500.02235174447, -82529.6813284971, -187500.02235174447, -187500.02235174447, -11393.4888116704, -0.192, 0.976, -0.10400000000000001, 192.0, 0.0, 0.0, 0.0, 0.0, 0.0, 0.0, 0.0, 0.0, 0.0, 1.718470386297351E9, 0.0, 2024-06-15 11:53:06.297
36.0, 37094.73158058305, -91791.73014065388, 77239.9845409375, -187500.02235174447, -80862.62117178693, -187500.02235174447, -187500.02235174447, -14140.808777905559, -0.192, 0.976, -0.10400000000000001, 192.0, 0.0, 0.0, 0.0, 0.0, 0.0, 0.0, 0.0, 0.0, 0.0, 1.7184703862973828E9, 0.0, 2024-06-15 11:53:06.297
37.0, 37046.04948115939, -92237.69214602617, 76709.89056943543, -187500.02235174447, -80900.97676527224, -187500.02235174447, -187500.02235174447, -15119.435205392267, -0.192, 0.976, -0.10400000000000001, 192.0, 0.0, 0.0, 0.0, 0.0, 0.0, 0.0, 0.0, 0.0, 0.0, 1.718470386297393E9, 0.0, 2024-06-15 11:53:06.297
38.0, 36998.0826375583, -92289.10115827336, 75251.4168919822, -187500.02235174447, -82563.41011088016, -187500.02235174447, -187500.02235174447, -13475.129124537603, -0.192, 0.976, -0.10400000000000001, 192.0, 0.0, 0.0, 0.0, 0.0, 0.0, 0.0, 0.0, 0.0, 0.0, 1.718470386297403E9, 0.0, 2024-06-15 11:53:06.297
39.0, 37037.86874268875, -91796.4687104784, 75636.24687626922, -187500.02235174447, -82913.43842905026, -187500.02235174447, -187500.02235174447, -12147.077875981078, -0.19, 0.972, -0.10400000000000001, 192.0, 250.0, 16.0, 30.0, 96.0, 252.0, 192.0, 0.0, 0.0, 0.0, 1.7184703862974288E9, 0.0, 2024-06-15 11:53:06.297
40.0, 37079.66650482017, -91414.99148785968, 77335.42648976165, -187500.02235174447, -81301.60943288916, -187500.02235174447, -187500.02235174447, -13296.739852039796, -0.19, 0.972, -0.10400000000000001, 192.0, 0.0, 0.0, 0.0, 0.0, 0.0, 0.0, 0.0, 0.0, 0.0, 1.718470386297459E9, 0.0, 2024-06-15 11:53:06.297
41.0, 37051.92798995114, -91728.56411082318, 77147.00128400342, -187500.02235174447, -80965.68506547034, -187500.02235174447, -187500.02235174447, -14521.458985979438, -0.19, 0.972, -0.10400000000000001, 192.0, 0.0, 0.0, 0.0, 0.0, 0.0, 0.0, 0.0, 0.0, 0.0, 1.718470386297469E9, 0.0, 2024-06-15 11:53:06.297
42.0, 37016.1875505671, -92557.5009056927, 75283.91632842021, -187500.02235174447, -82476.77474937138, -187500.02235174447, -187500.02235174447, -14259.407133985416, -0.19, 0.972, -0.10400000000000001, 192.0, 0.0, 0.0, 0.0, 0.0, 0.0, 0.0, 0.0, 0.0, 0.0, 1.718470386297479E9, 0.0, 2024-06-15 11:53:06.297
43.0, 37032.68313797512, -92797.6033446316, 75062.27643040138, -187500.02235174447, -83203.40760986897, -187500.02235174447, -187500.02235174447, -13917.961885686147, -0.19, 0.972, -0.10400000000000001, 192.0, 0.0, 0.0, 0.0, 0.0, 0.0, 0.0, 0.0, 0.0, 0.0, 1.718470386297505E9, 0.0, 2024-06-15 11:53:06.297
44.0, 37065.29433313541, -91810.05857110722, 77091.85953043218, -187500.02235174447, -81717.17306580223, -187500.02235174447, -187500.02235174447, -13801.06226218489, -0.19, 0.972, -0.10400000000000001, 192.0, 0.0, 0.0, 0.0, 0.0, 0.0, 0.0, 0.0, 0.0, 0.0, 1.7184703862975144E9, 0.0, 2024-06-15 11:53:06.297
45.0, 37054.78901324142, -91467.7416047742, 77531.83126829044, -187500.02235174447, -81042.61976988552, -187500.02235174447, -187500.02235174447, -14331.31269589814, -0.19, 0.972, -0.10400000000000001, 192.0, 0.0, 0.0, 0.0, 0.0, 0.0, 0.0, 0.0, 0.0, 0.0, 1.71847038629754E9, 0.0, 2024-06-15 11:53:06.297
46.0, 37033.28663507541, -92290.97870480761, 75665.63942022793, -187500.02235174447, -82329.65556736656, -187500.02235174447, -187500.02235174447, -14211.999083995712, -0.19, 0.972, -0.10400000000000001, 192.0, 0.0, 0.0, 0.0, 0.0, 0.0, 0.0, 0.0, 0.0, 0.0, 1.7184703862975492E9, 0.0, 2024-06-15 11:53:06.297
47.0, 37049.46929806105, -92940.56510216775, 74834.69096835745, -187500.02235174447, -83433.98820566991, -187500.02235174447, -187500.02235174447, -14224.806633568602, -0.19, 0.972, -0.10400000000000001, 192.0, 0.0, 0.0, 0.0, 0.0, 0.0, 0.0, 0.0, 0.0, 0.0, 1.7184703862975585E9, 0.0, 2024-06-15 11:53:06.297
48.0, 37071.686932049626, -92094.41746406764, 76678.1510923089, -187500.02235174447, -82211.63835664254, -187500.02235174447, -187500.02235174447, -13978.222188737655, -0.19, 0.972, -0.10400000000000001, 192.0, 0.0, 0.0, 0.0, 0.0, 0.0, 0.0, 0.0, 0.0, 0.0, 1.718470386297568E9, 0.0, 2024-06-15 11:53:06.297
49.0, 37053.55966729637, -91570.35846356851, 77590.32578352997, -187500.02235174447, -81244.05369091674, -187500.02235174447, -187500.02235174447, -14578.634748296112, -0.184, 0.9560000000000001, -0.10400000000000001, 192.0, 250.0, 64.0, 29.0, 224.0, 252.0, 192.0, 0.0, 0.0, 0.0, 1.718470386297578E9, 0.0, 2024-06-15 11:53:06.297
50.0, 37015.89697788918, -92167.9547033256, 76009.63276739512, -187500.02235174447, -82161.05635894017, -187500.02235174447, -187500.02235174447, -14428.542784278725, -0.184, 0.9560000000000001, -0.10400000000000001, 192.0, 0.0, 0.0, 0.0, 0.0, 0.0, 0.0, 0.0, 0.0, 0.0, 1.7184703862975872E9, 0.0, 2024-06-15 11:53:06.297
51.0, 37025.262358815955, -93035.22473993598, 74735.91860960945, -187500.02235174447, -83553.43592803908, -187500.02235174447, -187500.02235174447, -14525.616410448125, -0.184, 0.9560000000000001, -0.10400000000000001, 192.0, 0.0, 0.0, 0.0, 0.0, 0.0, 0.0, 0.0, 0.0, 0.0, 1.7184703862975967E9, 0.0, 2024-06-15 11:53:06.297
52.0, 37055.593676041804, -92385.7053978092, 76294.43869524464, -187500.02235174447, -82672.77719649997, -187500.02235174447, -187500.02235174447, -14198.364519877974, -0.184, 0.9560000000000001, -0.10400000000000001, 192.0, 0.0, 0.0, 0.0, 0.0, 0.0, 0.0, 0.0, 0.0, 0.0, 1.718470386297606E9, 0.0, 2024-06-15 11:53:06.297
53.0, 37067.484804092026, -91668.16969730494, 77670.61324961344, -187500.02235174447, -81443.81123111382, -187500.02235174447, -187500.02235174447, -14749.82675907931, -0.184, 0.9560000000000001, -0.10400000000000001, 192.0, 0.0, 0.0, 0.0, 0.0, 0.0, 0.0, 0.0, 0.0, 0.0, 1.7184703862976155E9, 0.0, 2024-06-15 11:53:06.297
54.0, 37034.24776008699, -92096.49617630198, 76450.47622328714, -187500.02235174447, -82043.77675578318, -187500.02235174447, -187500.02235174447, -14715.136851684672, -0.184, 0.9560000000000001, -0.10400000000000001, 192.0, 0.0, 0.0, 0.0, 0.0, 0.0, 0.0, 0.0, 0.0, 0.0, 1.718470386297629E9, 0.0, 2024-06-15 11:53:06.297
55.0, 37039.07573688933, -93081.73872014746, 74875.54995722175, -187500.02235174447, -83578.55928880683, -187500.02235174447, -187500.02235174447, -14804.700291717088, -0.184, 0.9560000000000001, -0.10400000000000001, 192.0, 0.0, 0.0, 0.0, 0.0, 0.0, 0.0, 0.0, 0.0, 0.0, 1.7184703862976387E9, 0.0, 2024-06-15 11:53:06.297
56.0, 37042.54025727991, -92647.77960154768, 76018.64052041061, -187500.02235174447, -83061.04934943312, -187500.02235174447, -187500.02235174447, -14431.157938379996, -0.184, 0.9560000000000001, -0.10400000000000001, 192.0, 0.0, 0.0, 0.0, 0.0, 0.0, 0.0, 0.0, 0.0, 0.0, 1.718470386297648E9, 0.0, 2024-06-15 11:53:06.297
57.0, 37055.77248999745, -91788.35502724112, 77697.65886040436, -187500.02235174447, -81657.2256871731, -187500.02235174447, -187500.02235174447, -14846.632164315244, -0.184, 0.9560000000000001, -0.10400000000000001, 192.0, 0.0, 0.0, 0.0, 0.0, 0.0, 0.0, 0.0, 0.0, 0.0, 1.7184703862976575E9, 0.0, 2024-06-15 11:53:06.297
58.0, 37018.15450407917, -92008.74322757045, 76878.73564705082, -187500.02235174447, -81894.60121328846, -187500.02235174447, -187500.02235174447, -14955.48515981259, -0.184, 0.9560000000000001, -0.10400000000000001, 192.0, 0.0, 0.0, 0.0, 0.0, 0.0, 0.0, 0.0, 0.0, 0.0, 1.7184703862976668E9, 0.0, 2024-06-15 11:53:06.297
59.0, 37017.59571046778, -92994.16458537157, 75112.83607635928, -187500.02235174447, -83412.99991762638, -187500.02235174447, -187500.02235174447, -14952.132398144293, -0.194, 0.9480000000000001, -0.106, 192.0, 249.0, 240.0, 29.0, 160.0, 252.0, 176.0, 0.0, 0.0, 0.0, 1.7184703862976763E9, 0.0, 2024-06-15 11:53:06.297
60.0, 37052.866763218255, -92877.08614791467, 75756.49926143876, -187500.02235174447, -83356.33824543217, -187500.02235174447, -187500.02235174447, -14666.141827838639, -0.194, 0.9480000000000001, -0.106, 192.0, 0.0, 0.0, 0.0, 0.0, 0.0, 0.0, 0.0, 0.0, 0.0, 1.7184703862976859E9, 0.0, 2024-06-15 11:53:06.297
61.0, 37077.81131003038, -91955.92605542256, 77626.69207175876, -187500.02235174447, -81909.39806811787, -187500.02235174447, -187500.02235174447, -14908.702958667633, -0.194, 0.9480000000000001, -0.106, 192.0, 0.0, 0.0, 0.0, 0.0, 0.0, 0.0, 0.0, 0.0, 0.0, 1.7184703862976952E9, 0.0, 2024-06-15 11:53:06.297
62.0, 37045.33422533682, -91996.06978846429, 77246.15362240716, -187500.02235174447, -81827.92595957828, -187500.02235174447, -187500.02235174447, -15217.715825762252, -0.194, 0.9480000000000001, -0.106, 192.0, 0.0, 0.0, 0.0, 0.0, 0.0, 0.0, 0.0, 0.0, 0.0, 1.718470386297705E9, 0.0, 2024-06-15 11:53:06.297
63.0, 37034.85125718728, -93004.58049828775, 75369.21058526165, -187500.02235174447, -83327.54919857373, -187500.02235174447, -187500.02235174447, -15210.272694858635, -0.194, 0.9480000000000001, -0.106, 192.0, 0.0, 0.0, 0.0, 0.0, 0.0, 0.0, 0.0, 0.0, 0.0, 1.7184703862977145E9, 0.0, 2024-06-15 11:53:06.297
64.0, 37038.36048106676, -93183.90854405267, 75488.94888030874, -187500.02235174447, -83706.74654325802, -187500.02235174447, -187500.02235174447, -15039.125387564349, -0.194, 0.9480000000000001, -0.106, 192.0, 0.0, 0.0, 0.0, 0.0, 0.0, 0.0, 0.0, 0.0, 0.0, 1.718470386297724E9, 0.0, 2024-06-15 11:53:06.297
65.0, 37069.943495982116, -92167.08298529184, 77472.6885524617, -187500.02235174447, -82215.97459506686, -187500.02235174447, -187500.02235174447, -14982.01668048104, -0.194, 0.9480000000000001, -0.106, 192.0, 0.0, 0.0, 0.0, 0.0, 0.0, 0.0, 0.0, 0.0, 0.0, 1.7184703862977333E9, 0.0, 2024-06-15 11:53:06.297
66.0, 37050.31866435035, -91976.78023299936, 77560.24033549313, -187500.02235174447, -81778.0592176985, -187500.02235174447, -187500.02235174447, -15414.81350836915, -0.194, 0.9480000000000001, -0.106, 192.0, 0.0, 0.0, 0.0, 0.0, 0.0, 0.0, 0.0, 0.0, 0.0, 1.7184703862977428E9, 0.0, 2024-06-15 11:53:06.297
67.0, 37016.32166103383, -92850.21935107939, 75715.99790048575, -187500.02235174447, -83067.57605881405, -187500.02235174447, -187500.02235174447, -15307.189858816846, -0.194, 0.9480000000000001, -0.106, 192.0, 0.0, 0.0, 0.0, 0.0, 0.0, 0.0, 0.0, 0.0, 0.0, 1.7184703862977521E9, 0.0, 2024-06-15 11:53:06.297
68.0, 37040.215675856554, -93343.72351690811, 75274.34978179334, -187500.02235174447, -83875.88219355133, -187500.02235174447, -187500.02235174447, -15297.735070912251, -0.194, 0.9480000000000001, -0.106, 192.0, 0.0, 0.0, 0.0, 0.0, 0.0, 0.0, 0.0, 0.0, 0.0, 1.718470386297762E9, 0.0, 2024-06-15 11:53:06.297
69.0, 37065.249629646496, -92380.87742100685, 77192.95647060353, -187500.02235174447, -82531.7823924759, -187500.02235174447, -187500.02235174447, -15039.415960242268, -0.194, 0.9480000000000001, -0.106, 192.0, 0.0, 0.0, 0.0, 0.0, 0.0, 0.0, 0.0, 0.0, 0.0, 1.7184703862977712E9, 0.0, 2024-06-15 11:53:06.297
70.0, 37061.22631564454, -92000.83071003327, 77749.17963137385, -187500.02235174447, -81804.4119244113, -187500.02235174447, -187500.02235174447, -15583.546827262262, -0.202, 0.9560000000000001, -0.1, 192.0, 249.0, 176.0, 29.0, 224.0, 252.0, 224.0, 0.0, 0.0, 0.0, 1.7184703862977808E9, 0.0, 2024-06-15 11:53:06.297
71.0, 37018.22155931253, -92725.34015480759, 76071.61415476969, -187500.02235174447, -82838.49302989162, -187500.02235174447, -187500.02235174447, -15447.268241318256, -0.202, 0.9560000000000001, -0.1, 192.0, 0.0, 0.0, 0.0, 0.0, 0.0, 0.0, 0.0, 0.0, 0.0, 1.7184703862977903E9, 0.0, 2024-06-15 11:53:06.297
72.0, 37039.76864096745, -93489.568649479, 75132.39385275768, -187500.02235174447, -83994.18997695328, -187500.02235174447, -187500.02235174447, -15567.945309632458, -0.202, 0.9560000000000001, -0.1, 192.0, 0.0, 0.0, 0.0, 0.0, 0.0, 0.0, 0.0, 0.0, 0.0, 1.7184703862977996E9, 0.0, 2024-06-15 11:53:06.297
73.0, 37055.325455108345, -92647.37727014748, 76857.16621365145, -187500.02235174447, -82889.67852469427, -187500.02235174447, -187500.02235174447, -15156.38263897689, -0.202, 0.9560000000000001, -0.1, 192.0, 0.0, 0.0, 0.0, 0.0, 0.0, 0.0, 0.0, 0.0, 0.0, 1.7184703862978292E9, 0.0, 2024-06-15 11:53:06.297
74.0, 37063.17091741216, -92057.60414094976, 77851.50591749024, -187500.02235174447, -81885.48170155069, -187500.02235174447, -187500.02235174447, -15695.685529194538, -0.202, 0.9560000000000001, -0.1, 192.0, 0.0, 0.0, 0.0, 0.0, 0.0, 0.0, 0.0, 0.0, 0.0, 1.7184703862978392E9, 0.0, 2024-06-15 11:53:06.297
75.0, 37026.24583557199, -92619.5046448117, 76425.77754566402, -187500.02235174447, -82645.17279209767, -187500.02235174447, -187500.02235174447, -15622.014179469847, -0.202, 0.9560000000000001, -0.1, 192.0, 0.0, 0.0, 0.0, 0.0, 0.0, 0.0, 0.0, 0.0, 0.0, 1.7184703862978492E9, 0.0, 2024-06-15 11:53:06.297
76.0, 37045.93772243711, -93544.48688560569, 75105.7282216225, -187500.02235174447, -84006.4834364037, -187500.02235174447, -187500.02235174447, -15783.88551281518, -0.202, 0.9560000000000001, -0.1, 192.0, 0.0, 0.0, 0.0, 0.0, 0.0, 0.0, 0.0, 0.0, 0.0, 1.7184703862978592E9, 0.0, 2024-06-15 11:53:06.297
77.0, 37068.91531573717, -92904.84701452816, 76506.28852919204, -187500.02235174447, -83234.92356955094, -187500.02235174447, -187500.02235174447, -15313.068367608592, -0.202, 0.9560000000000001, -0.1, 192.0, 0.0, 0.0, 0.0, 0.0, 0.0, 0.0, 0.0, 0.0, 0.0, 1.71847038629789E9, 0.0, 2024-06-15 11:53:06.297
78.0, 37082.14754845471, -92147.83813331582, 77880.31731609313, -187500.02235174447, -82034.12080217848, -187500.02235174447, -187500.02235174447, -15759.700925314537, -0.202, 0.9560000000000001, -0.1, 192.0, 0.0, 0.0, 0.0, 0.0, 0.0, 0.0, 0.0, 0.0, 0.0, 1.7184703862979E9, 0.0, 2024-06-15 11:53:06.297
79.0, 37032.8396001863, -92484.38834957939, 76812.50742822974, -187500.02235174447, -82450.24322870294, -187500.02235174447, -187500.02235174447, -15746.491044341452, -0.202, 0.9560000000000001, -0.1, 192.0, 0.0, 0.0, 0.0, 0.0, 0.0, 0.0, 0.0, 0.0, 0.0, 1.7184703862979467E9, 0.0, 2024-06-15 11:53:06.297
80.0, 37024.23417857101, -93552.1311822094, 75150.72228321103, -187500.02235174447, -83963.74690100514, -187500.02235174447, -187500.02235174447, -15950.026029351477, -0.21, 0.9540000000000001, -0.098, 192.0, 249.0, 112.0, 29.0, 208.0, 252.0, 240.0, 0.0, 0.0, 0.0, 1.718470386297957E9, 0.0, 2024-06-15 11:53:06.297
81.0, 37046.11653639276, -93216.96677410207, 76102.10193420672, -187500.02235174447, -83628.87306557574, -187500.02235174447, -187500.02235174447, -15566.89477764306, -0.21, 0.9540000000000001, -0.098, 192.0, 0.0, 0.0, 0.0, 0.0, 0.0, 0.0, 0.0, 0.0, 0.0, 1.7184703862979672E9, 0.0, 2024-06-15 11:53:06.297
82.0, 37086.59554560132, -92265.43066089519, 77818.22416999629, -187500.02235174447, -82246.44002275945, -187500.02235174447, -187500.02235174447, -15771.972033020502, -0.21, 0.9540000000000001, -0.098, 192.0, 0.0, 0.0, 0.0, 0.0, 0.0, 0.0, 0.0, 0.0, 0.0, 1.718470386297977E9, 0.0, 2024-06-15 11:53:06.297
83.0, 37052.3973765847, -92436.26504376711, 77128.91872273908, -187500.02235174447, -82393.6039082532, -187500.02235174447, -187500.02235174447, -15933.753959388014, -0.21, 0.9540000000000001, -0.098, 192.0, 0.0, 0.0, 0.0, 0.0, 0.0, 0.0, 0.0, 0.0, 0.0, 1.718470386297987E9, 0.0, 2024-06-15 11:53:06.297
84.0, 37043.45667880258, -93509.05937064403, 75308.54795080995, -187500.02235174447, -83897.42927520625, -187500.02235174447, -187500.02235174447, -16063.438780717706, -0.21, 0.9540000000000001, -0.098, 192.0, 0.0, 0.0, 0.0, 0.0, 0.0, 0.0, 0.0, 0.0, 0.0, 1.7184703862980134E9, 0.0, 2024-06-15 11:53:06.298
85.0, 37047.74821373799, -93500.23043158418, 75753.59353465958, -187500.02235174447, -83999.50969213364, -187500.02235174447, -187500.02235174447, -15822.688141189594, -0.21, 0.9540000000000001, -0.098, 192.0, 0.0, 0.0, 0.0, 0.0, 0.0, 0.0, 0.0, 0.0, 0.0, 1.7184703862980232E9, 0.0, 2024-06-15 11:53:06.298
86.0, 37078.05717921939, -92465.56818074801, 77647.56860108001, -187500.02235174447, -82568.14868070467, -187500.02235174447, -187500.02235174447, -15782.231483725487, -0.21, 0.9540000000000001, -0.098, 192.0, 0.0, 0.0, 0.0, 0.0, 0.0, 0.0, 0.0, 0.0, 0.0, 1.7184703862980485E9, 0.0, 2024-06-15 11:53:06.298
87.0, 37046.67533000414, -92400.30108693852, 77420.43017392518, -187500.02235174447, -82367.20649805147, -187500.02235174447, -187500.02235174447, -16053.380495712818, -0.21, 0.9540000000000001, -0.098, 192.0, 0.0, 0.0, 0.0, 0.0, 0.0, 0.0, 0.0, 0.0, 0.0, 1.718470386298058E9, 0.0, 2024-06-15 11:53:06.298
88.0, 37030.38090829622, -93405.72725602714, 75550.63969500539, -187500.02235174447, -83759.16138400571, -187500.02235174447, -187500.02235174447, -16084.963510628166, -0.21, 0.9540000000000001, -0.098, 192.0, 0.0, 0.0, 0.0, 0.0, 0.0, 0.0, 0.0, 0.0, 0.0, 1.7184703862980676E9, 0.0, 2024-06-15 11:53:06.298
89.0, 37033.308986819866, -93725.49131220476, 75463.3114294185, -187500.02235174447, -84286.84136710661, -187500.02235174447, -187500.02235174447, -16016.678931317203, -0.21, 0.9540000000000001, -0.098, 192.0, 0.0, 0.0, 0.0, 0.0, 0.0, 0.0, 0.0, 0.0, 0.0, 1.7184703862980769E9, 0.0, 2024-06-15 11:53:06.298
90.0, 37055.750138252995, -92688.19155552288, 77386.5672810754, -187500.02235174447, -82915.00305116213, -187500.02235174447, -187500.02235174447, -15747.83214900877, -0.23, 0.9520000000000001, -0.094, 192.0, 248.0, 208.0, 29.0, 192.0, 253.0, 16.0, 0.0, 0.0, 0.0, 1.7184703862980864E9, 0.0, 2024-06-15 11:53:06.298
91.0, 37059.32641736584, -92435.08040131097, 77618.6677954993, -187500.02235174447, -82427.77972552535, -187500.02235174447, -187500.02235174447, -16154.499787628627, -0.23, 0.9520000000000001, -0.094, 192.0, 0.0, 0.0, 0.0, 0.0, 0.0, 0.0, 0.0, 0.0, 0.0, 1.7184703862980962E9, 0.0, 2024-06-15 11:53:06.298
92.0, 37032.459620530564, -93316.05205727245, 75835.400919366, -187500.02235174447, -83633.61163540026, -187500.02235174447, -187500.02235174447, -16110.533906285038, -0.23, 0.9520000000000001, -0.094, 192.0, 0.0, 0.0, 0.0, 0.0, 0.0, 0.0, 0.0, 0.0, 0.0, 1.7184703862981057E9, 0.0, 2024-06-15 11:53:06.298
93.0, 37057.203001642585, -93933.9213292505, 75242.8114703669, -187500.02235174447, -84541.51714343038, -187500.02235174447, -187500.02235174447, -16205.752337664646, -0.23, 0.9520000000000001, -0.094, 192.0, 0.0, 0.0, 0.0, 0.0, 0.0, 0.0, 0.0, 0.0, 0.0, 1.718470386298115E9, 0.0, 2024-06-15 11:53:06.298
94.0, 37064.80259475739, -92927.08700026119, 77112.33372835323, -187500.02235174447, -83282.53278524075, -187500.02235174447, -187500.02235174447, -15707.643712478128, -0.23, 0.9520000000000001, -0.094, 192.0, 0.0, 0.0, 0.0, 0.0, 0.0, 0.0, 0.0, 0.0, 0.0, 1.7184703862981272E9, 0.0, 2024-06-15 11:53:06.298
95.0, 37067.03776920292, -92473.68186398529, 77781.67906781186, -187500.02235174447, -82521.74645921546, -187500.02235174447, -187500.02235174447, -16165.027459267076, -0.23, 0.9520000000000001, -0.094, 192.0, 0.0, 0.0, 0.0, 0.0, 0.0, 0.0, 0.0, 0.0, 0.0, 1.7184703862981367E9, 0.0, 2024-06-15 11:53:06.298
96.0, 37030.00092864048, -93212.8987566112, 76168.91129838364, -187500.02235174447, -83512.97927057497, -187500.02235174447, -187500.02235174447, -16113.976074931155, -0.23, 0.9520000000000001, -0.094, 192.0, 0.0, 0.0, 0.0, 0.0, 0.0, 0.0, 0.0, 0.0, 0.0, 1.7184703862981465E9, 0.0, 2024-06-15 11:53:06.298
97.0, 37029.21861758454, -94069.48465937194, 75101.973128554, -187500.02235174447, -84727.77422997645, -187500.02235174447, -187500.02235174447, -16327.815214135077, -0.23, 0.9520000000000001, -0.094, 192.0, 0.0, 0.0, 0.0, 0.0, 0.0, 0.0, 0.0, 0.0, 0.0, 1.7184703862981555E9, 0.0, 2024-06-15 11:53:06.298
98.0, 37043.501382291484, -93235.18344583314, 76727.97313069977, -187500.02235174447, -83753.08170951388, -187500.02235174447, -187500.02235174447, -15748.1674251756, -0.23, 0.9520000000000001, -0.094, 192.0, 0.0, 0.0, 0.0, 0.0, 0.0, 0.0, 0.0, 0.0, 0.0, 1.718470386298165E9, 0.0, 2024-06-15 11:53:06.298
99.0, 37053.26909461845, -92495.25129738466, 77875.62344975752, -187500.02235174447, -82658.3603213263, -187500.02235174447, -187500.02235174447, -16067.08211506392, -0.23, 0.9520000000000001, -0.094, 192.0, 0.0, 0.0, 0.0, 0.0, 0.0, 0.0, 0.0, 0.0, 0.0, 1.7184703862981744E9, 0.0, 2024-06-15 11:53:06.298
100.0, 37023.63068147071, -93047.9652342755, 76515.05041301851, -187500.02235174447, -83373.99612355187, -187500.02235174447, -187500.02235174447, -16051.257079989564, -0.226, 0.9500000000000001, -0.094, 192.0, 248.0, 240.0, 29.0, 176.0, 253.0, 16.0, 0.0, 0.0, 0.0, 1.7184703862981842E9, 0.0, 2024-06-15 11:53:06.298
101.0, 37025.61998672724, -94118.63614542916, 75045.2667528709, -187500.02235174447, -84847.02078664552, -187500.02235174447, -187500.02235174447, -16364.986165164253, -0.226, 0.9500000000000001, -0.094, 192.0, 0.0, 0.0, 0.0, 0.0, 0.0, 0.0, 0.0, 0.0, 0.0, 1.7184703862981937E9, 0.0, 2024-06-15 11:53:06.298
102.0, 37032.34786180829, -93547.25850191814, 76309.03438437395, -187500.02235174447, -84248.77634629922, -187500.02235174447, -187500.02235174447, -15826.957324380557, -0.226, 0.9500000000000001, -0.094, 192.0, 0.0, 0.0, 0.0, 0.0, 0.0, 0.0, 0.0, 0.0, 0.0, 1.7184703862982032E9, 0.0, 2024-06-15 11:53:06.298
103.0, 37050.16220213917, -92619.16936864489, 77843.92867611989, -187500.02235174447, -82947.74835678916, -187500.02235174447, -187500.02235174447, -15988.292215858963, -0.226, 0.9500000000000001, -0.094, 192.0, 0.0, 0.0, 0.0, 0.0, 0.0, 0.0, 0.0, 0.0, 0.0, 1.7184703862982123E9, 0.0, 2024-06-15 11:53:06.298
104.0, 37024.52475124893, -92955.31725350824, 76849.5889722811, -187500.02235174447, -83347.50930637233, -187500.02235174447, -187500.02235174447, -16049.826568344424, -0.226, 0.9500000000000001, -0.094, 192.0, 0.0, 0.0, 0.0, 0.0, 0.0, 0.0, 0.0, 0.0, 0.0, 1.718470386298222E9, 0.0, 2024-06-15 11:53:06.298
105.0, 37025.46352451605, -94098.31840971929, 75119.20632352906, -187500.02235174447, -84906.0964472409, -187500.02235174447, -187500.02235174447, -16329.826871136054, -0.226, 0.9500000000000001, -0.094, 192.0, 0.0, 0.0, 0.0, 0.0, 0.0, 0.0, 0.0, 0.0, 0.0, 1.7184703862982311E9, 0.0, 2024-06-15 11:53:06.298
106.0, 37048.59758002729, -93842.92737757295, 75930.90992342352, -187500.02235174447, -84722.02983165144, -187500.02235174447, -187500.02235174447, -15914.620866134272, -0.226, 0.9500000000000001, -0.094, 192.0, 0.0, 0.0, 0.0, 0.0, 0.0, 0.0, 0.0, 0.0, 0.0, 1.718470386298241E9, 0.0, 2024-06-15 11:53:06.298
107.0, 37066.791900013915, -92817.67521115247, 77716.590787958, -187500.02235174447, -83335.66288181102, -187500.02235174447, -187500.02235174447, -15895.532476369439, -0.226, 0.9500000000000001, -0.094, 192.0, 0.0, 0.0, 0.0, 0.0, 0.0, 0.0, 0.0, 0.0, 0.0, 1.7184703862982662E9, 0.0, 2024-06-15 11:53:06.298
108.0, 37033.778373453424, -92905.33875290619, 77167.52018541339, -187500.02235174447, -83377.23712649789, -187500.02235174447, -187500.02235174447, -16046.250289231575, -0.226, 0.9500000000000001, -0.094, 192.0, 0.0, 0.0, 0.0, 0.0, 0.0, 0.0, 0.0, 0.0, 0.0, 1.7184703862982867E9, 0.0, 2024-06-15 11:53:06.298
109.0, 37030.96205365206, -94026.92693792903, 75293.21465411362, -187500.02235174447, -84907.03522050801, -187500.02235174447, -187500.02235174447, -16235.971896168221, -0.226, 0.9500000000000001, -0.094, 192.0, 0.0, 0.0, 0.0, 0.0, 0.0, 0.0, 0.0, 0.0, 0.0, 1.7184703862982967E9, 0.0, 2024-06-15 11:53:06.298
110.0, 37042.07087064634, -94121.43011348607, 75580.76984653114, -187500.02235174447, -85171.43400566984, -187500.02235174447, -187500.02235174447, -16030.805233812956, -0.226, 0.9500000000000001, -0.094, 192.0, 0.0, 0.0, 0.0, 0.0, 0.0, 0.0, 0.0, 0.0, 0.0, 1.7184703862983067E9, 0.0, 2024-06-15 11:53:06.298
111.0, 37059.25936213248, -92994.16458537157, 77528.32204441096, -187500.02235174447, -83714.92728172867, -187500.02235174447, -187500.02235174447, -15743.518262328895, -0.22, 0.9520000000000001, -0.08600000000000001, 192.0, 249.0, 32.0, 29.0, 192.0, 253.0, 80.0, 0.0, 0.0, 0.0, 1.7184703862983165E9, 0.0, 2024-06-15 11:53:06.298
112.0, 37042.83082995783, -92865.15031637554, 77434.40001420975, -187500.02235174447, -83434.50229579238, -187500.02235174447, -187500.02235174447, -16017.975332495611, -0.22, 0.9520000000000001, -0.08600000000000001, 192.0, 0.0, 0.0, 0.0, 0.0, 0.0, 0.0, 0.0, 0.0, 0.0, 1.718470386298326E9, 0.0, 2024-06-15 11:53:06.298
113.0, 37018.981518624016, -93878.93603789044, 75552.1372618839, -187500.02235174447, -84823.32793752289, -187500.02235174447, -187500.02235174447, -16085.343490283907, -0.22, 0.9520000000000001, -0.08600000000000001, 192.0, 0.0, 0.0, 0.0, 0.0, 0.0, 0.0, 0.0, 0.0, 0.0, 1.7184703862983358E9, 0.0, 2024-06-15 11:53:06.298
114.0, 37034.44892578709, -94329.18957819814, 75283.29047957546, -187500.02235174447, -85530.71594604444, -187500.02235174447, -187500.02235174447, -16107.628179505848, -0.22, 0.9520000000000001, -0.08600000000000001, 192.0, 0.0, 0.0, 0.0, 0.0, 0.0, 0.0, 0.0, 0.0, 0.0, 1.7184703862983456E9, 0.0, 2024-06-15 11:53:06.298
115.0, 37065.942533724614, -93194.30210522439, 77268.10303546226, -187500.02235174447, -84129.52978963015, -187500.02235174447, -187500.02235174447, -15588.37480406461, -0.22, 0.9520000000000001, -0.08600000000000001, 192.0, 0.0, 0.0, 0.0, 0.0, 0.0, 0.0, 0.0, 0.0, 0.0, 1.718470386298355E9, 0.0, 2024-06-15 11:53:06.298
116.0, 37053.58201904083, -92820.67034490948, 77661.69490357577, -187500.02235174447, -83508.86654959519, -187500.02235174447, -187500.02235174447, -15912.072767266365, -0.22, 0.9520000000000001, -0.08600000000000001, 192.0, 0.0, 0.0, 0.0, 0.0, 0.0, 0.0, 0.0, 0.0, 0.0, 1.7184703862983868E9, 0.0, 2024-06-15 11:53:06.298
117.0, 37032.01258564146, -93690.84610829904, 75877.82453034217, -187500.02235174447, -84704.17078783164, -187500.02235174447, -187500.02235174447, -15897.119450225766, -0.22, 0.9520000000000001, -0.08600000000000001, 192.0, 0.0, 0.0, 0.0, 0.0, 0.0, 0.0, 0.0, 0.0, 0.0, 1.7184703862984016E9, 0.0, 2024-06-15 11:53:06.298
118.0, 37055.258399874976, -94490.43506269873, 75063.25990715742, -187500.02235174447, -85836.86778984878, -187500.02235174447, -187500.02235174447, -16145.804959035511, -0.22, 0.9520000000000001, -0.08600000000000001, 192.0, 0.0, 0.0, 0.0, 0.0, 0.0, 0.0, 0.0, 0.0, 0.0, 1.7184703862984338E9, 0.0, 2024-06-15 11:53:06.298
119.0, 37058.499402821, -93522.6715830173, 76888.1010279776, -187500.02235174447, -84680.74615964248, -187500.02235174447, -187500.02235174447, -15551.539129202263, -0.22, 0.9520000000000001, -0.08600000000000001, 192.0, 0.0, 0.0, 0.0, 0.0, 0.0, 0.0, 0.0, 0.0, 0.0, 1.718470386298472E9, 0.0, 2024-06-15 11:53:06.298
120.0, 37057.91825746516, -92887.56911606422, 77784.1601114464, -187500.02235174447, -83725.47730511156, -187500.02235174447, -187500.02235174447, -15824.789205168392, -0.22, 0.9520000000000001, -0.08600000000000001, 192.0, 0.0, 0.0, 0.0, 0.0, 0.0, 0.0, 0.0, 0.0, 0.0, 1.718470386298484E9, 0.0, 2024-06-15 11:53:06.298
121.0, 37031.43144028562, -93577.07572902153, 76214.55356056137, -187500.02235174447, -84661.92599081111, -187500.02235174447, -187500.02235174447, -15782.320890703308, -0.232, 0.9520000000000001, -0.08, 192.0, 248.0, 192.0, 29.0, 192.0, 253.0, 128.0, 0.0, 0.0, 0.0, 1.718470386777762E9, 0.0, 2024-06-15 11:53:06.777
122.0, 37051.43625157312, -94587.50868886814, 74955.77036807184, -187500.02235174447, -86061.30165592453, -187500.02235174447, -187500.02235174447, -16121.195688390218, -0.232, 0.9520000000000001, -0.08, 192.0, 0.0, 0.0, 0.0, 0.0, 0.0, 0.0, 0.0, 0.0, 0.0, 1.7184703867779093E9, 0.0, 2024-06-15 11:53:06.777
123.0, 37061.963923211566, -93813.31131616967, 76512.56936938399, -187500.02235174447, -85189.85184310102, -187500.02235174447, -187500.02235174447, -15494.497477352319, -0.232, 0.9520000000000001, -0.08, 192.0, 0.0, 0.0, 0.0, 0.0, 0.0, 0.0, 0.0, 0.0, 0.0, 1.7184703867779212E9, 0.0, 2024-06-15 11:53:06.777
124.0, 37075.039693717925, -92990.43184404753, 77824.86263809951, -187500.02235174447, -83992.24537518567, -187500.02235174447, -187500.02235174447, -15699.15004958511, -0.232, 0.9520000000000001, -0.08, 192.0, 0.0, 0.0, 0.0, 0.0, 0.0, 0.0, 0.0, 0.0, 0.0, 1.7184703867779312E9, 0.0, 2024-06-15 11:53:06.777
125.0, 37044.88719044771, -93453.47058218367, 76584.832559208, -187500.02235174447, -84603.52088254939, -187500.02235174447, -187500.02235174447, -15673.177322528045, -0.232, 0.9520000000000001, -0.08, 192.0, 0.0, 0.0, 0.0, 0.0, 0.0, 0.0, 0.0, 0.0, 0.0, 1.7184703867779577E9, 0.0, 2024-06-15 11:53:06.777
126.0, 37056.46539407556, -94602.70787509774, 74967.12505425514, -187500.02235174447, -86183.27512541713, -187500.02235174447, -187500.02235174447, -16039.276544961518, -0.232, 0.9520000000000001, -0.08, 192.0, 0.0, 0.0, 0.0, 0.0, 0.0, 0.0, 0.0, 0.0, 0.0, 1.7184703867779672E9, 0.0, 2024-06-15 11:53:06.777
127.0, 37060.82398424435, -94103.459310944, 76125.88419030717, -187500.02235174447, -85688.25104096545, -187500.02235174447, -187500.02235174447, -15500.331282655156, -0.232, 0.9520000000000001, -0.08, 192.0, 0.0, 0.0, 0.0, 0.0, 0.0, 0.0, 0.0, 0.0, 0.0, 1.7184703867779768E9, 0.0, 2024-06-15 11:53:06.777
128.0, 37068.98237097054, -93090.47825222948, 77795.13481797396, -187500.02235174447, -84273.60913438906, -187500.02235174447, -187500.02235174447, -15521.028998020769, -0.232, 0.9520000000000001, -0.08, 192.0, 0.0, 0.0, 0.0, 0.0, 0.0, 0.0, 0.0, 0.0, 0.0, 1.718470386777986E9, 0.0, 2024-06-15 11:53:06.777
129.0, 37028.21278908406, -93339.45433371715, 76926.79189762974, -187500.02235174447, -84555.62109418167, -187500.02235174447, -187500.02235174447, -15587.860713942136, -0.232, 0.9520000000000001, -0.08, 192.0, 0.0, 0.0, 0.0, 0.0, 0.0, 0.0, 0.0, 0.0, 0.0, 1.7184703867779956E9, 0.0, 2024-06-15 11:53:06.777
130.0, 37040.014510156456, -94543.00636565762, 75060.39888386714, -187500.02235174447, -86207.77263734015, -187500.02235174447, -187500.02235174447, -15909.52466839846, -0.232, 0.9520000000000001, -0.08, 192.0, 0.0, 0.0, 0.0, 0.0, 0.0, 0.0, 0.0, 0.0, 0.0, 1.7184703867780046E9, 0.0, 2024-06-15 11:53:06.778
131.0, 37053.96199869657, -94424.67623051122, 75711.72871729478, -187500.02235174447, -86199.7483610807, -187500.02235174447, -187500.02235174447, -15590.967606421425, -0.232, 0.9480000000000001, -0.084, 192.0, 248.0, 192.0, 29.0, 160.0, 253.0, 96.0, 0.0, 0.0, 0.0, 1.7184703867780137E9, 0.0, 2024-06-15 11:53:06.778
132.0, 37083.01926648847, -93276.17654516418, 77662.63367684289, -187500.02235174447, -84655.82396457481, -187500.02235174447, -187500.02235174447, -15377.195522450867, -0.232, 0.9480000000000001, -0.084, 192.0, 0.0, 0.0, 0.0, 0.0, 0.0, 0.0, 0.0, 0.0, 0.0, 1.7184703867780228E9, 0.0, 2024-06-15 11:53:06.778
133.0, 37054.00670218548, -93315.73913285007, 77235.73770949099, -187500.02235174447, -84607.67830701808, -187500.02235174447, -187500.02235174447, -15573.734411446383, -0.232, 0.9480000000000001, -0.084, 192.0, 0.0, 0.0, 0.0, 0.0, 0.0, 0.0, 0.0, 0.0, 0.0, 1.718470386778032E9, 0.0, 2024-06-15 11:53:06.778
134.0, 37048.17289688264, -94479.549763149, 75263.97857236608, -187500.02235174447, -86211.32656470855, -187500.02235174447, -187500.02235174447, -15793.183838508588, -0.232, 0.9480000000000001, -0.084, 192.0, 0.0, 0.0, 0.0, 0.0, 0.0, 0.0, 0.0, 0.0, 0.0, 1.7184703867780435E9, 0.0, 2024-06-15 11:53:06.778
135.0, 37055.593676041804, -94728.50349289221, 75353.96669554315, -187500.02235174447, -86670.69961675402, -187500.02235174447, -187500.02235174447, -15695.14908732761, -0.232, 0.9480000000000001, -0.084, 192.0, 0.0, 0.0, 0.0, 0.0, 0.0, 0.0, 0.0, 0.0, 0.0, 1.7184703867780755E9, 0.0, 2024-06-15 11:53:06.778
136.0, 37070.211716915575, -93519.83291147149, 77437.10457528885, -187500.02235174447, -85104.2893653261, -187500.02235174447, -187500.02235174447, -15240.961639995772, -0.232, 0.9480000000000001, -0.084, 192.0, 0.0, 0.0, 0.0, 0.0, 0.0, 0.0, 0.0, 0.0, 0.0, 1.7184703867781E9, 0.0, 2024-06-15 11:53:06.778
137.0, 37058.499402821, -93270.18627765015, 77523.56112284197, -187500.02235174447, -84644.15635396914, -187500.02235174447, -187500.02235174447, -15474.045631175713, -0.232, 0.9480000000000001, -0.084, 192.0, 0.0, 0.0, 0.0, 0.0, 0.0, 0.0, 0.0, 0.0, 0.0, 1.7184703867781196E9, 0.0, 2024-06-15 11:53:06.778
138.0, 37054.677254519134, -94336.8115230574, 75561.72616025522, -187500.02235174447, -86113.47062748321, -187500.02235174447, -187500.02235174447, -15603.775155994315, -0.232, 0.9480000000000001, -0.084, 192.0, 0.0, 0.0, 0.0, 0.0, 0.0, 0.0, 0.0, 0.0, 0.0, 1.718470386778136E9, 0.0, 2024-06-15 11:53:06.778
139.0, 37069.317647137366, -94982.4193099045, 75073.7205235625, -187500.02235174447, -87067.53248781354, -187500.02235174447, -187500.02235174447, -15778.610501123727, -0.232, 0.9480000000000001, -0.084, 192.0, 0.0, 0.0, 0.0, 0.0, 0.0, 0.0, 0.0, 0.0, 0.0, 1.7184703867781503E9, 0.0, 2024-06-15 11:53:06.778
140.0, 37075.26321116248, -93814.67477258143, 77140.98866474495, -187500.02235174447, -85604.52140623587, -187500.02235174447, -187500.02235174447, -15148.358362717434, -0.232, 0.9480000000000001, -0.084, 192.0, 0.0, 0.0, 0.0, 0.0, 0.0, 0.0, 0.0, 0.0, 0.0, 1.7184703867781768E9, 0.0, 2024-06-15 11:53:06.778
141.0, 37053.40320508518, -93296.09194947386, 77734.06985212206, -187500.02235174447, -84769.43788164115, -187500.02235174447, -187500.02235174447, -15390.673624357418, -0.224, 0.9500000000000001, -0.084, 192.0, 249.0, 0.0, 29.0, 176.0, 253.0, 96.0, 0.0, 0.0, 0.0, 1.718470386778186E9, 0.0, 2024-06-15 11:53:06.778
142.0, 37025.105896604764, -94144.11713410821, 75928.38417630008, -187500.02235174447, -85956.00258779558, -187500.02235174447, -187500.02235174447, -15396.082746515602, -0.224, 0.9500000000000001, -0.084, 192.0, 0.0, 0.0, 0.0, 0.0, 0.0, 0.0, 0.0, 0.0, 0.0, 1.718470386778195E9, 0.0, 2024-06-15 11:53:06.778
143.0, 37043.009643913465, -95068.942912691, 74903.51198953534, -187500.02235174447, -87278.46590023827, -187500.02235174447, -187500.02235174447, -15725.145128386634, -0.224, 0.9500000000000001, -0.084, 192.0, 0.0, 0.0, 0.0, 0.0, 0.0, 0.0, 0.0, 0.0, 0.0, 1.718470386778204E9, 0.0, 2024-06-15 11:53:06.778
144.0, 37054.02905392993, -94062.37680463515, 76773.43657892187, -187500.02235174447, -86069.10241473942, -187500.02235174447, -187500.02235174447, -15023.278000745537, -0.224, 0.9500000000000001, -0.084, 192.0, 0.0, 0.0, 0.0, 0.0, 0.0, 0.0, 0.0, 0.0, 0.0, 1.7184703867782133E9, 0.0, 2024-06-15 11:53:06.778
145.0, 37066.233106402535, -93323.80811259845, 77851.14828957895, -187500.02235174447, -84924.6930986277, -187500.02235174447, -187500.02235174447, -15233.20558466978, -0.224, 0.9500000000000001, -0.084, 192.0, 0.0, 0.0, 0.0, 0.0, 0.0, 0.0, 0.0, 0.0, 0.0, 1.718470386778222E9, 0.0, 2024-06-15 11:53:06.778
146.0, 37037.19819035509, -93981.26232400684, 76302.507674993, -187500.02235174447, -85825.20017924311, -187500.02235174447, -187500.02235174447, -15226.768282266652, -0.224, 0.9500000000000001, -0.084, 192.0, 0.0, 0.0, 0.0, 0.0, 0.0, 0.0, 0.0, 0.0, 0.0, 1.7184703867782311E9, 0.0, 2024-06-15 11:53:06.778
147.0, 37056.68891152011, -95145.09530605022, 74816.407241393, -187500.02235174447, -87457.83864949211, -187500.02235174447, -187500.02235174447, -15672.95380508349, -0.224, 0.9500000000000001, -0.084, 192.0, 0.0, 0.0, 0.0, 0.0, 0.0, 0.0, 0.0, 0.0, 0.0, 1.7184703867782404E9, 0.0, 2024-06-15 11:53:06.778
148.0, 37065.85312674679, -94411.46634953814, 76349.44633834915, -187500.02235174447, -86634.64625294761, -187500.02235174447, -187500.02235174447, -15033.135120050327, -0.224, 0.9500000000000001, -0.084, 192.0, 0.0, 0.0, 0.0, 0.0, 0.0, 0.0, 0.0, 0.0, 0.0, 1.7184703867782493E9, 0.0, 2024-06-15 11:53:06.778
149.0, 37063.52854532344, -93413.05862820848, 77894.71183952235, -187500.02235174447, -85174.0044562822, -187500.02235174447, -187500.02235174447, -15073.36826006988, -0.224, 0.9500000000000001, -0.084, 192.0, 0.0, 0.0, 0.0, 0.0, 0.0, 0.0, 0.0, 0.0, 0.0, 1.7184703867782583E9, 0.0, 2024-06-15 11:53:06.778
150.0, 37028.43630652861, -93828.93518554392, 76694.33375529453, -187500.02235174447, -85713.37440173322, -187500.02235174447, -187500.02235174447, -15089.237998633147, -0.224, 0.9500000000000001, -0.084, 192.0, 0.0, 0.0, 0.0, 0.0, 0.0, 0.0, 0.0, 0.0, 0.0, 1.7184703867782676E9, 0.0, 2024-06-15 11:53:06.778
151.0, 37044.12723113623, -95090.28882864582, 74870.43140774147, -187500.02235174447, -87486.80651030618, -187500.02235174447, -187500.02235174447, -15515.038730506747, -0.224, 0.9500000000000001, -0.084, 192.0, 0.0, 0.0, 0.0, 0.0, 0.0, 0.0, 0.0, 0.0, 0.0, 1.7184703867782764E9, 0.0, 2024-06-15 11:53:06.778
152.0, 37062.880344734236, -94727.5647196251, 75912.42503075898, -187500.02235174447, -87151.99973011014, -187500.02235174447, -187500.02235174447, -15055.151588338804, -0.218, 0.9540000000000001, -0.076, 192.0, 249.0, 48.0, 29.0, 208.0, 253.0, 160.0, 0.0, 0.0, 0.0, 1.7184703867782867E9, 0.0, 2024-06-15 11:53:06.778
153.0, 37076.53726059643, -93623.56735748856, 77787.37876264796, -187500.02235174447, -85552.88887654411, -187500.02235174447, -187500.02235174447, -14958.212072636137, -0.218, 0.9540000000000001, -0.076, 192.0, 0.0, 0.0, 0.0, 0.0, 0.0, 0.0, 0.0, 0.0, 0.0, 1.718470386778296E9, 0.0, 2024-06-15 11:53:06.778
154.0, 37044.1942863696, -93795.72049328334, 77036.94129430548, -187500.02235174447, -85705.88656734068, -187500.02235174447, -187500.02235174447, -15048.356658024391, -0.218, 0.9540000000000001, -0.076, 192.0, 0.0, 0.0, 0.0, 0.0, 0.0, 0.0, 0.0, 0.0, 0.0, 1.718470386778305E9, 0.0, 2024-06-15 11:53:06.778
155.0, 37045.91537069266, -95049.69806071497, 75015.38247053415, -187500.02235174447, -87490.27103069676, -187500.02235174447, -187500.02235174447, -15381.487057386286, -0.218, 0.9540000000000001, -0.076, 192.0, 0.0, 0.0, 0.0, 0.0, 0.0, 0.0, 0.0, 0.0, 0.0, 1.718470386778314E9, 0.0, 2024-06-15 11:53:06.778
156.0, 37060.13108016623, -95055.12953461762, 75516.01684284411, -187500.02235174447, -87655.15984954356, -187500.02235174447, -187500.02235174447, -15137.070731767504, -0.218, 0.9540000000000001, -0.076, 192.0, 0.0, 0.0, 0.0, 0.0, 0.0, 0.0, 0.0, 0.0, 0.0, 1.7184703867783232E9, 0.0, 2024-06-15 11:53:06.778
157.0, 37071.44106286062, -93803.43184512042, 77644.5287638341, -187500.02235174447, -85923.86077926884, -187500.02235174447, -187500.02235174447, -14773.96664309104, -0.218, 0.9540000000000001, -0.076, 192.0, 0.0, 0.0, 0.0, 0.0, 0.0, 0.0, 0.0, 0.0, 0.0, 1.718470386778332E9, 0.0, 2024-06-15 11:53:06.778
158.0, 37044.820135214344, -93687.33688441955, 77395.73149630208, -187500.02235174447, -85643.88282822167, -187500.02235174447, -187500.02235174447, -14916.52606922699, -0.218, 0.9540000000000001, -0.076, 192.0, 0.0, 0.0, 0.0, 0.0, 0.0, 0.0, 0.0, 0.0, 0.0, 1.7184703867783408E9, 0.0, 2024-06-15 11:53:06.778
159.0, 37031.543199007894, -94849.26996818424, 75305.39635484175, -187500.02235174447, -87313.60284252201, -187500.02235174447, -187500.02235174447, -15120.731606570675, -0.218, 0.9540000000000001, -0.076, 192.0, 0.0, 0.0, 0.0, 0.0, 0.0, 0.0, 0.0, 0.0, 0.0, 1.71847038677835E9, 0.0, 2024-06-15 11:53:06.778
160.0, 37058.499402821, -95246.2369497105, 75194.46464711007, -187500.02235174447, -87995.88984202026, -187500.02235174447, -187500.02235174447, -15120.172812959292, -0.218, 0.9540000000000001, -0.076, 192.0, 0.0, 0.0, 0.0, 0.0, 0.0, 0.0, 0.0, 0.0, 0.0, 1.718470386778359E9, 0.0, 2024-06-15 11:53:06.778
161.0, 37073.564478583874, -94024.24472859439, 77385.42734210817, -187500.02235174447, -86344.27474072871, -187500.02235174447, -187500.02235174447, -14594.884466515121, -0.218, 0.9540000000000001, -0.076, 192.0, 0.0, 0.0, 0.0, 0.0, 0.0, 0.0, 0.0, 0.0, 0.0, 1.718470386778368E9, 0.0, 2024-06-15 11:53:06.778
162.0, 37050.40807132817, -93620.08048535354, 77672.5802031255, -187500.02235174447, -85634.42804031707, -187500.02235174447, -187500.02235174447, -14762.768419118933, -0.20600000000000002, 0.9560000000000001, -0.076, 192.0, 249.0, 144.0, 29.0, 224.0, 253.0, 160.0, 0.0, 0.0, 0.0, 1.718470386778377E9, 0.0, 2024-06-15 11:53:06.778
163.0, 37044.57426602534, -94689.52205056215, 75618.58899814951, -187500.02235174447, -87152.29030278807, -187500.02235174447, -187500.02235174447, -14914.827336648386, -0.20600000000000002, 0.9560000000000001, -0.076, 192.0, 0.0, 0.0, 0.0, 0.0, 0.0, 0.0, 0.0, 0.0, 0.0, 1.718470386778386E9, 0.0, 2024-06-15 11:53:06.778
164.0, 37064.28850463492, -95482.65135081427, 74904.02607965781, -187500.02235174447, -88347.37102357997, -187500.02235174447, -187500.02235174447, -15186.62454922492, -0.20600000000000002, 0.9560000000000001, -0.076, 192.0, 0.0, 0.0, 0.0, 0.0, 0.0, 0.0, 0.0, 0.0, 0.0, 1.7184703867784019E9, 0.0, 2024-06-15 11:53:06.778
165.0, 37069.83173725984, -94283.10028113131, 77056.4320154705, -187500.02235174447, -86801.77024623993, -187500.02235174447, -187500.02235174447, -14458.069438704186, -0.20600000000000002, 0.9560000000000001, -0.076, 192.0, 0.0, 0.0, 0.0, 0.0, 0.0, 0.0, 0.0, 0.0, 0.0, 1.718470386778411E9, 0.0, 2024-06-15 11:53:06.778
166.0, 37068.535336081426, -93641.82873270854, 77868.67205723192, -187500.02235174447, -85731.03227985291, -187500.02235174447, -187500.02235174447, -14638.984458325442, -0.20600000000000002, 0.9560000000000001, -0.076, 192.0, 0.0, 0.0, 0.0, 0.0, 0.0, 0.0, 0.0, 0.0, 0.0, 1.71847038677842E9, 0.0, 2024-06-15 11:53:06.778
167.0, 37042.13792587971, -94450.73836454611, 76052.86104117168, -187500.02235174447, -86895.80403516341, -187500.02235174447, -187500.02235174447, -14652.730781165455, -0.20600000000000002, 0.9560000000000001, -0.076, 192.0, 0.0, 0.0, 0.0, 0.0, 0.0, 0.0, 0.0, 0.0, 0.0, 1.7184703867784288E9, 0.0, 2024-06-15 11:53:06.778
168.0, 37062.299199378394, -95557.52969473955, 74762.36072330007, -187500.02235174447, -88504.9955254788, -187500.02235174447, -187500.02235174447, -15116.060091979516, -0.20600000000000002, 0.9560000000000001, -0.076, 192.0, 0.0, 0.0, 0.0, 0.0, 0.0, 0.0, 0.0, 0.0, 0.0, 1.7184703867784386E9, 0.0, 2024-06-15 11:53:06.778
169.0, 37066.41192035817, -94561.2677408776, 76667.26579275916, -187500.02235174447, -87280.2540397947, -187500.02235174447, -187500.02235174447, -14367.74603936029, -0.20600000000000002, 0.9560000000000001, -0.076, 192.0, 0.0, 0.0, 0.0, 0.0, 0.0, 0.0, 0.0, 0.0, 0.0, 1.7184703867784474E9, 0.0, 2024-06-15 11:53:06.778
170.0, 37076.090225707325, -93663.17464866336, 77985.14699758853, -187500.02235174447, -85857.29728428094, -187500.02235174447, -187500.02235174447, -14456.326002636672, -0.20600000000000002, 0.9560000000000001, -0.076, 192.0, 0.0, 0.0, 0.0, 0.0, 0.0, 0.0, 0.0, 0.0, 0.0, 1.7184703867784567E9, 0.0, 2024-06-15 11:53:06.778
171.0, 37054.85606847478, -94294.83494697034, 76453.38195006632, -187500.02235174447, -86723.40503017962, -187500.02235174447, -187500.02235174447, -14507.39973871705, -0.20600000000000002, 0.9560000000000001, -0.076, 192.0, 0.0, 0.0, 0.0, 0.0, 0.0, 0.0, 0.0, 0.0, 0.0, 1.7184703867784655E9, 0.0, 2024-06-15 11:53:06.778
172.0, 37061.98627495602, -95541.25762477609, 74761.73487445532, -187500.02235174447, -88541.54062766321, -187500.02235174447, -187500.02235174447, -14988.364575906346, -0.2, 0.9520000000000001, -0.074, 192.0, 249.0, 192.0, 29.0, 192.0, 253.0, 176.0, 0.0, 0.0, 0.0, 1.7184703867784748E9, 0.0, 2024-06-15 11:53:06.778
173.0, 37066.635437802724, -94888.2961140032, 76226.8917235007, -187500.02235174447, -87797.02637160139, -187500.02235174447, -187500.02235174447, -14376.999661564787, -0.2, 0.9520000000000001, -0.074, 192.0, 0.0, 0.0, 0.0, 0.0, 0.0, 0.0, 0.0, 0.0, 0.0, 1.7184703867784839E9, 0.0, 2024-06-15 11:53:06.778
174.0, 37084.51683336697, -93769.32308308162, 77996.43462853845, -187500.02235174447, -86091.67767663929, -187500.02235174447, -187500.02235174447, -14294.946407669355, -0.2, 0.9520000000000001, -0.074, 192.0, 0.0, 0.0, 0.0, 0.0, 0.0, 0.0, 0.0, 0.0, 0.0, 1.7184703867784927E9, 0.0, 2024-06-15 11:53:06.778
175.0, 37057.58298129833, -94129.52144497889, 76877.3945423835, -187500.02235174447, -86529.95068191894, -187500.02235174447, -187500.02235174447, -14356.659574110457, -0.2, 0.9520000000000001, -0.074, 192.0, 0.0, 0.0, 0.0, 0.0, 0.0, 0.0, 0.0, 0.0, 0.0, 1.7184703867785015E9, 0.0, 2024-06-15 11:53:06.778
176.0, 37061.896867978205, -95456.52216154602, 74871.7725124088, -187500.02235174447, -88460.47085052382, -187500.02235174447, -187500.02235174447, -14808.790660952409, -0.2, 0.9520000000000001, -0.074, 192.0, 0.0, 0.0, 0.0, 0.0, 0.0, 0.0, 0.0, 0.0, 0.0, 1.7184703867785103E9, 0.0, 2024-06-15 11:53:06.778
177.0, 37076.44785361861, -95169.30224529532, 75809.11526788656, -187500.02235174447, -88229.75614425614, -187500.02235174447, -187500.02235174447, -14374.9433010749, -0.2, 0.9520000000000001, -0.074, 192.0, 0.0, 0.0, 0.0, 0.0, 0.0, 0.0, 0.0, 0.0, 0.0, 1.7184703867785192E9, 0.0, 2024-06-15 11:53:06.778
178.0, 37076.58196408534, -93881.39472978053, 77914.31431940965, -187500.02235174447, -86336.45163016935, -187500.02235174447, -187500.02235174447, -14068.25501540363, -0.2, 0.9520000000000001, -0.074, 192.0, 0.0, 0.0, 0.0, 0.0, 0.0, 0.0, 0.0, 0.0, 0.0, 1.7184703867785285E9, 0.0, 2024-06-15 11:53:06.778
179.0, 37060.04167318841, -93958.44119291798, 77275.56851811035, -187500.02235174447, -86324.64990909694, -187500.02235174447, -187500.02235174447, -14177.37623183444, -0.2, 0.9520000000000001, -0.074, 192.0, 0.0, 0.0, 0.0, 0.0, 0.0, 0.0, 0.0, 0.0, 0.0, 1.7184703867785373E9, 0.0, 2024-06-15 11:53:06.778
180.0, 37073.87740300625, -95327.03850591643, 75064.75747403593, -187500.02235174447, -88298.73362764521, -187500.02235174447, -187500.02235174447, -14604.786289308822, -0.2, 0.9520000000000001, -0.074, 192.0, 0.0, 0.0, 0.0, 0.0, 0.0, 0.0, 0.0, 0.0, 0.0, 1.718470386778546E9, 0.0, 2024-06-15 11:53:06.778
181.0, 37079.353580397794, -95483.67953105921, 75385.63911743631, -187500.02235174447, -88669.43730943649, -187500.02235174447, -187500.02235174447, -14465.378459141071, -0.2, 0.9520000000000001, -0.074, 192.0, 0.0, 0.0, 0.0, 0.0, 0.0, 0.0, 0.0, 0.0, 0.0, 1.7184703867785552E9, 0.0, 2024-06-15 11:53:06.778
182.0, 37095.62565036126, -94124.20172979853, 77695.51309293666, -187500.02235174447, -86733.1727425066, -187500.02235174447, -187500.02235174447, -13949.008458734568, -0.20800000000000002, 0.9500000000000001, -0.076, 192.0, 249.0, 128.0, 29.0, 176.0, 253.0, 160.0, 0.0, 0.0, 0.0, 1.7184703867785645E9, 0.0, 2024-06-15 11:53:06.778
183.0, 37077.99012398603, -93925.9641082244, 77602.39572553584, -187500.02235174447, -86278.73942598575, -187500.02235174447, -187500.02235174447, -14118.993475317178, -0.20800000000000002, 0.9500000000000001, -0.076, 192.0, 0.0, 0.0, 0.0, 0.0, 0.0, 0.0, 0.0, 0.0, 0.0, 1.7184703867785733E9, 0.0, 2024-06-15 11:53:06.778
184.0, 37074.59265882881, -95158.03696608984, 75395.76445767457, -187500.02235174447, -88072.42221503523, -187500.02235174447, -187500.02235174447, -14402.771222921756, -0.20800000000000002, 0.9500000000000001, -0.076, 192.0, 0.0, 0.0, 0.0, 0.0, 0.0, 0.0, 0.0, 0.0, 0.0, 1.718470386778582E9, 0.0, 2024-06-15 11:53:06.778
185.0, 37080.11353970928, -95707.6887139903, 75079.35316316523, -187500.02235174447, -88982.8981736777, -187500.02235174447, -187500.02235174447, -14518.329741755695, -0.20800000000000002, 0.9500000000000001, -0.076, 192.0, 0.0, 0.0, 0.0, 0.0, 0.0, 0.0, 0.0, 0.0, 0.0, 1.7184703867785912E9, 0.0, 2024-06-15 11:53:06.778
186.0, 37092.362295670784, -94368.30513099494, 77418.82084832441, -187500.02235174447, -87137.35933749191, -187500.02235174447, -187500.02235174447, -13821.469404872585, -0.20800000000000002, 0.9500000000000001, -0.076, 192.0, 0.0, 0.0, 0.0, 0.0, 0.0, 0.0, 0.0, 0.0, 0.0, 1.7184703867786E9, 0.0, 2024-06-15 11:53:06.778
187.0, 37080.001780987004, -93857.4560114689, 77901.86439774805, -187500.02235174447, -86211.43832343082, -187500.02235174447, -187500.02235174447, -13973.885950313324, -0.20800000000000002, 0.9500000000000001, -0.076, 192.0, 0.0, 0.0, 0.0, 0.0, 0.0, 0.0, 0.0, 0.0, 0.0, 1.7184703867786093E9, 0.0, 2024-06-15 11:53:06.778
188.0, 37063.19326915661, -94856.35547117656, 75843.91693400347, -187500.02235174447, -87681.49020451191, -187500.02235174447, -187500.02235174447, -14088.013957502122, -0.20800000000000002, 0.9500000000000001, -0.076, 192.0, 0.0, 0.0, 0.0, 0.0, 0.0, 0.0, 0.0, 0.0, 0.0, 1.718470386778618E9, 0.0, 2024-06-15 11:53:06.778
189.0, 37088.450740391105, -95763.03163326165, 74901.433277301, -187500.02235174447, -89079.83768938038, -187500.02235174447, -187500.02235174447, -14427.402845311504, -0.20800000000000002, 0.9500000000000001, -0.076, 192.0, 0.0, 0.0, 0.0, 0.0, 0.0, 0.0, 0.0, 0.0, 0.0, 1.718470386778627E9, 0.0, 2024-06-15 11:53:06.778
190.0, 37101.459455664095, -94641.44344823879, 77043.93739031999, -187500.02235174447, -87565.84227870015, -187500.02235174447, -187500.02235174447, -13721.601810646274, -0.20800000000000002, 0.9500000000000001, -0.076, 192.0, 0.0, 0.0, 0.0, 0.0, 0.0, 0.0, 0.0, 0.0, 0.0, 1.718470386778636E9, 0.0, 2024-06-15 11:53:06.778
191.0, 37094.753932327505, -93882.53466874774, 78068.89898406256, -187500.02235174447, -86258.7569664427, -187500.02235174447, -187500.02235174447, -13853.588861654862, -0.20800000000000002, 0.9500000000000001, -0.076, 192.0, 0.0, 0.0, 0.0, 0.0, 0.0, 0.0, 0.0, 0.0, 0.0, 1.7184703867786455E9, 0.0, 2024-06-15 11:53:06.778
192.0, 37081.23112693204, -94700.76497802317, 76244.7954708094, -187500.02235174447, -87428.26729157774, -187500.02235174447, -187500.02235174447, -13941.52062434204, -0.20800000000000002, 0.9500000000000001, -0.076, 192.0, 0.0, 0.0, 0.0, 0.0, 0.0, 0.0, 0.0, 0.0, 0.0, 1.7184703867786548E9, 0.0, 2024-06-15 11:53:06.778
193.0, 37095.044505005426, -95893.54346913619, 74773.35778157208, -187500.02235174447, -89217.07740033595, -187500.02235174447, -187500.02235174447, -14442.66908677448, -0.20400000000000001, 0.9580000000000001, -0.068, 192.0, 249.0, 160.0, 29.0, 240.0, 253.0, 224.0, 0.0, 0.0, 0.0, 1.718470386778664E9, 0.0, 2024-06-15 11:53:06.778
194.0, 37090.39534215872, -94897.84030888561, 76662.594278168, -187500.02235174447, -87973.04635918693, -187500.02235174447, -187500.02235174447, -13640.867309673706, -0.20400000000000001, 0.9580000000000001, -0.068, 192.0, 0.0, 0.0, 0.0, 0.0, 0.0, 0.0, 0.0, 0.0, 0.0, 1.7184703867786732E9, 0.0, 2024-06-15 11:53:06.778
195.0, 37094.68687709414, -93870.04004359723, 78180.99298250592, -187500.02235174447, -86296.33024887208, -187500.02235174447, -187500.02235174447, -13634.541765992853, -0.20400000000000001, 0.9580000000000001, -0.068, 192.0, 0.0, 0.0, 0.0, 0.0, 0.0, 0.0, 0.0, 0.0, 0.0, 1.7184703867786827E9, 0.0, 2024-06-15 11:53:06.778
196.0, 37072.8492227613, -94419.51297754205, 76714.31621483758, -187500.02235174447, -87040.30806306697, -187500.02235174447, -187500.02235174447, -13693.103336465758, -0.20400000000000001, 0.9580000000000001, -0.068, 192.0, 0.0, 0.0, 0.0, 0.0, 0.0, 0.0, 0.0, 0.0, 0.0, 1.7184703867786915E9, 0.0, 2024-06-15 11:53:06.778
197.0, 37087.44491189062, -95747.87715052094, 74826.33141593116, -187500.02235174447, -89031.93790101266, -187500.02235174447, -187500.02235174447, -14215.57536310856, -0.20400000000000001, 0.9580000000000001, -0.068, 192.0, 0.0, 0.0, 0.0, 0.0, 0.0, 0.0, 0.0, 0.0, 0.0, 1.7184703867787008E9, 0.0, 2024-06-15 11:53:06.778
198.0, 37099.55955738539, -95179.78521344486, 76187.39619104817, -187500.02235174447, -88387.91708802189, -187500.02235174447, -187500.02235174447, -13641.94019340756, -0.20400000000000001, 0.9580000000000001, -0.068, 192.0, 0.0, 0.0, 0.0, 0.0, 0.0, 0.0, 0.0, 0.0, 0.0, 1.71847038677871E9, 0.0, 2024-06-15 11:53:06.778
199.0, 37111.13776101324, -93980.32355073972, 78131.9979586599, -187500.02235174447, -86485.47071045288, -187500.02235174447, -187500.02235174447, -13489.970682855926, -0.20400000000000001, 0.9580000000000001, -0.068, 192.0, 0.0, 0.0, 0.0, 0.0, 0.0, 0.0, 0.0, 0.0, 0.0, 1.7184703867787187E9, 0.0, 2024-06-15 11:53:06.778
200.0, 37089.791845058426, -94243.58239693432, 77144.76610955788, -187500.02235174447, -86768.71201619053, -187500.02235174447, -187500.02235174447, -13578.394183921122, -0.20400000000000001, 0.9580000000000001, -0.068, 192.0, 0.0, 0.0, 0.0, 0.0, 0.0, 0.0, 0.0, 0.0, 0.0, 1.7184703867787275E9, 0.0, 2024-06-15 11:53:06.778
201.0, 37101.39240043073, -95629.45760839673, 74992.31547025628, -187500.02235174447, -88847.60306448974, -187500.02235174447, -187500.02235174447, -14077.709803308226, -0.20400000000000001, 0.9580000000000001, -0.068, 192.0, 0.0, 0.0, 0.0, 0.0, 0.0, 0.0, 0.0, 0.0, 0.0, 1.7184703867787364E9, 0.0, 2024-06-15 11:53:06.778
202.0, 37110.400153446215, -95503.6396388578, 75753.99586605976, -187500.02235174447, -88830.32516602578, -187500.02235174447, -187500.02235174447, -13788.38882307873, -0.20400000000000001, 0.9580000000000001, -0.068, 192.0, 0.0, 0.0, 0.0, 0.0, 0.0, 0.0, 0.0, 0.0, 0.0, 1.7184703867787454E9, 0.0, 2024-06-15 11:53:06.778
203.0, 37119.58672041735, -94136.40578227113, 78008.41516356649, -187500.02235174447, -86759.10076607476, -187500.02235174447, -187500.02235174447, -13402.955341691417, -0.20600000000000002, 0.96, -0.08, 192.0, 249.0, 144.0, 30.0, 0.0, 253.0, 128.0, 0.0, 0.0, 0.0, 1.7184703867787545E9, 0.0, 2024-06-15 11:53:06.778
204.0, 37102.66644986468, -94133.3212415363, 77513.90516923729, -187500.02235174447, -86589.31691519225, -187500.02235174447, -187500.02235174447, -13568.224140193957, -0.20600000000000002, 0.96, -0.08, 192.0, 0.0, 0.0, 0.0, 0.0, 0.0, 0.0, 0.0, 0.0, 0.0, 1.7184703867787633E9, 0.0, 2024-06-15 11:53:06.778
205.0, 37108.05322027841, -95501.04683650099, 75226.04766202542, -187500.02235174447, -88628.93594848347, -187500.02235174447, -187500.02235174447, -14000.86450587088, -0.20600000000000002, 0.96, -0.08, 192.0, 0.0, 0.0, 0.0, 0.0, 0.0, 0.0, 0.0, 0.0, 0.0, 1.7184703867787724E9, 0.0, 2024-06-15 11:53:06.778
206.0, 37113.14941801422, -95806.70694192732, 75340.22037270313, -187500.02235174447, -89220.54192072654, -187500.02235174447, -187500.02235174447, -13986.291168486021, -0.20600000000000002, 0.96, -0.08, 192.0, 0.0, 0.0, 0.0, 0.0, 0.0, 0.0, 0.0, 0.0, 0.0, 1.7184703867787812E9, 0.0, 2024-06-15 11:53:06.778
207.0, 37110.5119121685, -94420.42939906471, 77727.00670087418, -187500.02235174447, -87183.47098630322, -187500.02235174447, -187500.02235174447, -13420.27794364428, -0.20600000000000002, 0.96, -0.08, 192.0, 0.0, 0.0, 0.0, 0.0, 0.0, 0.0, 0.0, 0.0, 0.0, 1.7184703867787902E9, 0.0, 2024-06-15 11:53:06.778
208.0, 37090.77532181446, -94088.88597355914, 77822.2698357427, -187500.02235174447, -86499.2170332929, -187500.02235174447, -187500.02235174447, -13579.623529866163, -0.20600000000000002, 0.96, -0.08, 192.0, 0.0, 0.0, 0.0, 0.0, 0.0, 0.0, 0.0, 0.0, 0.0, 1.718470386778799E9, 0.0, 2024-06-15 11:53:06.778
209.0, 37075.1514524402, -95242.81713280882, 75593.8456170375, -187500.02235174447, -88254.6783393238, -187500.02235174447, -187500.02235174447, -13810.338236133843, -0.20600000000000002, 0.96, -0.08, 192.0, 0.0, 0.0, 0.0, 0.0, 0.0, 0.0, 0.0, 0.0, 0.0, 1.718470386778808E9, 0.0, 2024-06-15 11:53:06.778
210.0, 37099.55955738539, -95958.0506036342, 75026.33482531724, -187500.02235174447, -89423.27224293617, -187500.02235174447, -187500.02235174447, -14055.82744548648, -0.20600000000000002, 0.96, -0.08, 192.0, 0.0, 0.0, 0.0, 0.0, 0.0, 0.0, 0.0, 0.0, 0.0, 1.7184703867788167E9, 0.0, 2024-06-15 11:53:06.778
211.0, 37114.468170937085, -94653.4910385002, 77380.59936530582, -187500.02235174447, -87565.55170602223, -187500.02235174447, -187500.02235174447, -13354.586166690133, -0.20600000000000002, 0.96, -0.08, 192.0, 0.0, 0.0, 0.0, 0.0, 0.0, 0.0, 0.0, 0.0, 0.0, 1.718470386778826E9, 0.0, 2024-06-15 11:53:06.778
212.0, 37109.12610401226, -94053.81608650877, 78038.94764649244, -187500.02235174447, -86446.62337858956, -187500.02235174447, -187500.02235174447, -13522.604229760675, -0.20600000000000002, 0.96, -0.08, 192.0, 0.0, 0.0, 0.0, 0.0, 0.0, 0.0, 0.0, 0.0, 0.0, 1.7184703867788353E9, 0.0, 2024-06-15 11:53:06.778
213.0, 37098.665487607184, -95026.56400520373, 75991.52785438632, -187500.02235174447, -87913.12133230225, -187500.02235174447, -187500.02235174447, -13677.300653135855, -0.20400000000000001, 0.964, -0.08600000000000001, 192.0, 249.0, 160.0, 30.0, 32.0, 253.0, 80.0, 0.0, 0.0, 0.0, 1.718470386778844E9, 0.0, 2024-06-15 11:53:06.778
214.0, 37119.25144425052, -96066.2777502868, 74834.1098230016, -187500.02235174447, -89543.30111066117, -187500.02235174447, -187500.02235174447, -14125.028446320111, -0.20400000000000001, 0.964, -0.08600000000000001, 192.0, 0.0, 0.0, 0.0, 0.0, 0.0, 0.0, 0.0, 0.0, 0.0, 1.7184703867788537E9, 0.0, 2024-06-15 11:53:06.778
215.0, 37123.85590360831, -94952.26680663429, 76965.90745042652, -187500.02235174447, -88008.40681891523, -187500.02235174447, -187500.02235174447, -13394.260513098301, -0.20400000000000001, 0.964, -0.08600000000000001, 192.0, 0.0, 0.0, 0.0, 0.0, 0.0, 0.0, 0.0, 0.0, 0.0, 1.7184703867788625E9, 0.0, 2024-06-15 11:53:06.778
216.0, 37117.77622911647, -94087.92484854757, 78175.31563941427, -187500.02235174447, -86477.20056500442, -187500.02235174447, -187500.02235174447, -13498.464345748944, -0.20400000000000001, 0.964, -0.08600000000000001, 192.0, 0.0, 0.0, 0.0, 0.0, 0.0, 0.0, 0.0, 0.0, 0.0, 1.7184703867788713E9, 0.0, 2024-06-15 11:53:06.778
217.0, 37093.0551997489, -94825.24184289479, 76421.19543805068, -187500.02235174447, -87549.86078141461, -187500.02235174447, -187500.02235174447, -13604.523373189375, -0.20400000000000001, 0.964, -0.08600000000000001, 192.0, 0.0, 0.0, 0.0, 0.0, 0.0, 0.0, 0.0, 0.0, 0.0, 1.7184703867788804E9, 0.0, 2024-06-15 11:53:06.778
218.0, 37110.690726124136, -96137.0433732323, 74736.72327240983, -187500.02235174447, -89562.36714868154, -187500.02235174447, -187500.02235174447, -14200.443232112317, -0.20400000000000001, 0.964, -0.08600000000000001, 192.0, 0.0, 0.0, 0.0, 0.0, 0.0, 0.0, 0.0, 0.0, 0.0, 1.7184703867788897E9, 0.0, 2024-06-15 11:53:06.778
219.0, 37100.58773763034, -95293.91322063367, 76497.97368025467, -187500.02235174447, -88486.39887409197, -187500.02235174447, -187500.02235174447, -13521.978380915927, -0.20400000000000001, 0.964, -0.08600000000000001, 192.0, 0.0, 0.0, 0.0, 0.0, 0.0, 0.0, 0.0, 0.0, 0.0, 1.7184703867788985E9, 0.0, 2024-06-15 11:53:06.778
220.0, 37095.446836405616, -94140.20557882854, 78221.9637300925, -187500.02235174447, -86575.65999933005, -187500.02235174447, -187500.02235174447, -13435.767702551808, -0.20400000000000001, 0.964, -0.08600000000000001, 192.0, 0.0, 0.0, 0.0, 0.0, 0.0, 0.0, 0.0, 0.0, 0.0, 1.7184703867789073E9, 0.0, 2024-06-15 11:53:06.778
221.0, 37080.493519365016, -94622.10918928495, 76853.90285896098, -187500.02235174447, -87218.33970765349, -187500.02235174447, -187500.02235174447, -13551.795608019305, -0.20400000000000001, 0.964, -0.08600000000000001, 192.0, 0.0, 0.0, 0.0, 0.0, 0.0, 0.0, 0.0, 0.0, 0.0, 1.7184703867789161E9, 0.0, 2024-06-15 11:53:06.778
222.0, 37103.8063888319, -96065.36132876412, 74793.69786902641, -187500.02235174447, -89426.93792902684, -187500.02235174447, -187500.02235174447, -14173.218807365753, -0.20400000000000001, 0.964, -0.08600000000000001, 192.0, 0.0, 0.0, 0.0, 0.0, 0.0, 0.0, 0.0, 0.0, 0.0, 1.718470386778925E9, 0.0, 2024-06-15 11:53:06.778
223.0, 37103.3593539428, -95594.96886670218, 76031.00103509439, -187500.02235174447, -88922.88373981521, -187500.02235174447, -187500.02235174447, -13669.499894320954, -0.198, 0.964, -0.08600000000000001, 192.0, 249.0, 208.0, 30.0, 32.0, 253.0, 80.0, 0.0, 0.0, 0.0, 1.718470386778934E9, 0.0, 2024-06-15 11:53:06.778
224.0, 37103.426409176165, -94291.0575021574, 78129.3381010697, -187500.02235174447, -86822.08798194981, -187500.02235174447, -187500.02235174447, -13419.674446543986, -0.198, 0.964, -0.08600000000000001, 192.0, 0.0, 0.0, 0.0, 0.0, 0.0, 0.0, 0.0, 0.0, 0.0, 1.7184703867789433E9, 0.0, 2024-06-15 11:53:06.778
225.0, 37078.43715887513, -94457.48859137161, 77267.76775929544, -187500.02235174447, -86948.10711718883, -187500.02235174447, -187500.02235174447, -13536.350552600688, -0.198, 0.964, -0.08600000000000001, 192.0, 0.0, 0.0, 0.0, 0.0, 0.0, 0.0, 0.0, 0.0, 0.0, 1.718470386778952E9, 0.0, 2024-06-15 11:53:06.778
226.0, 37092.921089282165, -95856.26075938474, 75013.72844144446, -187500.02235174447, -89121.0319544115, -187500.02235174447, -187500.02235174447, -14029.564145751494, -0.198, 0.964, -0.08600000000000001, 192.0, 0.0, 0.0, 0.0, 0.0, 0.0, 0.0, 0.0, 0.0, 0.0, 1.7184703867789607E9, 0.0, 2024-06-15 11:53:06.778
227.0, 37101.92884229766, -95817.90516589943, 75603.65803285337, -187500.02235174447, -89254.80714497653, -187500.02235174447, -187500.02235174447, -13772.787305448926, -0.198, 0.964, -0.08600000000000001, 192.0, 0.0, 0.0, 0.0, 0.0, 0.0, 0.0, 0.0, 0.0, 0.0, 1.7184703867789695E9, 0.0, 2024-06-15 11:53:06.778
228.0, 37114.19995000362, -94423.58099503291, 77952.49109893931, -187500.02235174447, -87075.44500535072, -187500.02235174447, -187500.02235174447, -13319.225706961835, -0.198, 0.964, -0.08600000000000001, 192.0, 0.0, 0.0, 0.0, 0.0, 0.0, 0.0, 0.0, 0.0, 0.0, 1.7184703867789788E9, 0.0, 2024-06-15 11:53:06.778
229.0, 37097.614955617784, -94318.77366528197, 77631.05066192754, -187500.02235174447, -86718.44294291055, -187500.02235174447, -187500.02235174447, -13492.272912534823, -0.198, 0.964, -0.08600000000000001, 192.0, 0.0, 0.0, 0.0, 0.0, 0.0, 0.0, 0.0, 0.0, 0.0, 1.7184703867789876E9, 0.0, 2024-06-15 11:53:06.778
230.0, 37095.08920849433, -95654.49156218667, 75295.62864251478, -187500.02235174447, -88784.16881372557, -187500.02235174447, -187500.02235174447, -13897.264170320532, -0.198, 0.964, -0.08600000000000001, 192.0, 0.0, 0.0, 0.0, 0.0, 0.0, 0.0, 0.0, 0.0, 0.0, 1.7184703867789965E9, 0.0, 2024-06-15 11:53:06.778
231.0, 37103.64992662072, -96076.1795730805, 75204.5452838594, -187500.02235174447, -89579.62269540105, -187500.02235174447, -187500.02235174447, -13956.183368704722, -0.198, 0.964, -0.08600000000000001, 192.0, 0.0, 0.0, 0.0, 0.0, 0.0, 0.0, 0.0, 0.0, 0.0, 1.7184703867790053E9, 0.0, 2024-06-15 11:53:06.779
232.0, 37112.47886568056, -94670.03132939713, 77652.66479881582, -187500.02235174447, -87460.87848673803, -187500.02235174447, -187500.02235174447, -13318.488099394812, -0.198, 0.964, -0.08600000000000001, 192.0, 0.0, 0.0, 0.0, 0.0, 0.0, 0.0, 0.0, 0.0, 0.0, 1.718470386779014E9, 0.0, 2024-06-15 11:53:06.779
233.0, 37096.60912711729, -94267.16348733468, 77910.62628157453, -187500.02235174447, -86604.15847351057, -187500.02235174447, -187500.02235174447, -13507.740319697896, -0.19, 0.964, -0.09, 192.0, 250.0, 16.0, 30.0, 32.0, 253.0, 48.0, 0.0, 0.0, 0.0, 1.718470386779023E9, 0.0, 2024-06-15 11:53:06.779
234.0, 37081.09701646531, -95430.95176588914, 75661.63845797045, -187500.02235174447, -88403.33979169605, -187500.02235174447, -187500.02235174447, -13790.82516322436, -0.19, 0.964, -0.09, 192.0, 0.0, 0.0, 0.0, 0.0, 0.0, 0.0, 0.0, 0.0, 0.0, 1.718470386779032E9, 0.0, 2024-06-15 11:53:06.779
235.0, 37098.1066939958, -96239.97315644899, 74913.99495768487, -187500.02235174447, -89765.07511914673, -187500.02235174447, -187500.02235174447, -14092.461954648728, -0.19, 0.964, -0.09, 192.0, 0.0, 0.0, 0.0, 0.0, 0.0, 0.0, 0.0, 0.0, 0.0, 1.7184703867790425E9, 0.0, 2024-06-15 11:53:06.779
236.0, 37119.92199658418, -94985.61560936162, 77246.35478810726, -187500.02235174447, -87935.29426280192, -187500.02235174447, -187500.02235174447, -13391.958283419406, -0.19, 0.964, -0.09, 192.0, 0.0, 0.0, 0.0, 0.0, 0.0, 0.0, 0.0, 0.0, 0.0, 1.7184703867790723E9, 0.0, 2024-06-15 11:53:06.779
237.0, 37110.02017379048, -94279.0546153849, 78106.18169381401, -187500.02235174447, -86611.26632824735, -187500.02235174447, -187500.02235174447, -13534.897689211093, -0.19, 0.964, -0.09, 192.0, 0.0, 0.0, 0.0, 0.0, 0.0, 0.0, 0.0, 0.0, 0.0, 1.718470386779082E9, 0.0, 2024-06-15 11:53:06.779
238.0, 37104.09696150982, -95211.43528359357, 76100.5596638393, -187500.02235174447, -88040.01218557503, -187500.02235174447, -187500.02235174447, -13713.733996598006, -0.19, 0.964, -0.09, 192.0, 0.0, 0.0, 0.0, 0.0, 0.0, 0.0, 0.0, 0.0, 0.0, 1.7184703867790911E9, 0.0, 2024-06-15 11:53:06.779
239.0, 37117.99974656102, -96374.82123074785, 74744.18875505791, -187500.02235174447, -89904.214728381, -187500.02235174447, -187500.02235174447, -14247.426598957372, -0.19, 0.964, -0.09, 192.0, 0.0, 0.0, 0.0, 0.0, 0.0, 0.0, 0.0, 0.0, 0.0, 1.7184703867791007E9, 0.0, 2024-06-15 11:53:06.779
240.0, 37110.28839472394, -95291.11925257674, 76832.51223951725, -187500.02235174447, -88418.42721920338, -187500.02235174447, -187500.02235174447, -13495.558618969753, -0.19, 0.964, -0.09, 192.0, 0.0, 0.0, 0.0, 0.0, 0.0, 0.0, 0.0, 0.0, 0.0, 1.7184703867791257E9, 0.0, 2024-06-15 11:53:06.779
241.0, 37112.30005172492, -94302.81451974089, 78235.75475642142, -187500.02235174447, -86670.207878376, -187500.02235174447, -187500.02235174447, -13521.15136637108, -0.19, 0.964, -0.09, 192.0, 0.0, 0.0, 0.0, 0.0, 0.0, 0.0, 0.0, 0.0, 0.0, 1.718470387258191E9, 0.0, 2024-06-15 11:53:07.258
242.0, 37098.68783935164, -94946.16478039799, 76585.5254632861, -187500.02235174447, -87631.57875914322, -187500.02235174447, -187500.02235174447, -13624.014094354403, -0.19, 0.964, -0.09, 192.0, 0.0, 0.0, 0.0, 0.0, 0.0, 0.0, 0.0, 0.0, 0.0, 1.718470387258249E9, 0.0, 2024-06-15 11:53:07.258
243.0, 37129.10856355531, -96320.77471265492, 74739.80781314467, -187500.02235174447, -89803.85539577669, -187500.02235174447, -187500.02235174447, -14248.097151291031, -0.19, 0.964, -0.09, 192.0, 0.0, 0.0, 0.0, 0.0, 0.0, 0.0, 0.0, 0.0, 0.0, 1.7184703872582772E9, 0.0, 2024-06-15 11:53:07.258
244.0, 37120.905473340215, -95647.18254174979, 76333.9118759527, -187500.02235174447, -88938.21703651155, -187500.02235174447, -187500.02235174447, -13686.800144529361, -0.184, 0.9580000000000001, -0.094, 192.0, 250.0, 64.0, 29.0, 240.0, 253.0, 16.0, 0.0, 0.0, 0.0, 1.7184703872583025E9, 0.0, 2024-06-15 11:53:07.258
245.0, 37123.09594429683, -94433.57222480443, 78219.79561088033, -187500.02235174447, -86882.68356116815, -187500.02235174447, -187500.02235174447, -13551.549738830297, -0.184, 0.9580000000000001, -0.094, 192.0, 0.0, 0.0, 0.0, 0.0, 0.0, 0.0, 0.0, 0.0, 0.0, 1.7184703872583313E9, 0.0, 2024-06-15 11:53:07.258
246.0, 37092.2058334596, -94807.22633686381, 77002.6760700555, -187500.02235174447, -87367.78347108168, -187500.02235174447, -187500.02235174447, -13664.604862285241, -0.184, 0.9580000000000001, -0.094, 192.0, 0.0, 0.0, 0.0, 0.0, 0.0, 0.0, 0.0, 0.0, 0.0, 1.7184703872583504E9, 0.0, 2024-06-15 11:53:07.258
247.0, 37106.86857782228, -96207.54077524433, 74861.55776519273, -187500.02235174447, -89610.401047516, -187500.02235174447, -187500.02235174447, -14213.004912496199, -0.184, 0.9580000000000001, -0.094, 192.0, 0.0, 0.0, 0.0, 0.0, 0.0, 0.0, 0.0, 0.0, 0.0, 1.718470387258366E9, 0.0, 2024-06-15 11:53:07.258
248.0, 37119.430258206165, -95940.43742900342, 75868.23563197085, -187500.02235174447, -89377.16059412487, -187500.02235174447, -187500.02235174447, -13861.635489658773, -0.184, 0.9580000000000001, -0.094, 192.0, 0.0, 0.0, 0.0, 0.0, 0.0, 0.0, 0.0, 0.0, 0.0, 1.7184703872583847E9, 0.0, 2024-06-15 11:53:07.258
249.0, 37122.80537161892, -94584.78177604459, 78103.90181587957, -187500.02235174447, -87154.19020106677, -187500.02235174447, -187500.02235174447, -13540.418570091555, -0.184, 0.9580000000000001, -0.094, 192.0, 0.0, 0.0, 0.0, 0.0, 0.0, 0.0, 0.0, 0.0, 0.0, 1.718470387258401E9, 0.0, 2024-06-15 11:53:07.258
250.0, 37108.947290056625, -94655.61445422345, 77410.70716508712, -187500.02235174447, -87113.64413662483, -187500.02235174447, -187500.02235174447, -13674.931368223593, -0.184, 0.9580000000000001, -0.094, 192.0, 0.0, 0.0, 0.0, 0.0, 0.0, 0.0, 0.0, 0.0, 0.0, 1.7184703872584126E9, 0.0, 2024-06-15 11:53:07.258
251.0, 37117.79858086092, -96057.42645948249, 75088.62913711419, -187500.02235174447, -89349.62324495593, -187500.02235174447, -187500.02235174447, -14164.501627028183, -0.184, 0.9580000000000001, -0.094, 192.0, 0.0, 0.0, 0.0, 0.0, 0.0, 0.0, 0.0, 0.0, 0.0, 1.718470387258426E9, 0.0, 2024-06-15 11:53:07.258
252.0, 37125.44287746464, -96200.47762399646, 75453.27549615806, -187500.02235174447, -89754.14511610808, -187500.02235174447, -187500.02235174447, -14053.748733252138, -0.184, 0.9580000000000001, -0.094, 192.0, 0.0, 0.0, 0.0, 0.0, 0.0, 0.0, 0.0, 0.0, 0.0, 1.7184703872584476E9, 0.0, 2024-06-15 11:53:07.258
253.0, 37126.60516817631, -94777.63262720498, 77886.3299353516, -187500.02235174447, -87502.96682154738, -187500.02235174447, -187500.02235174447, -13539.502148568887, -0.184, 0.9580000000000001, -0.094, 192.0, 0.0, 0.0, 0.0, 0.0, 0.0, 0.0, 0.0, 0.0, 0.0, 1.7184703872584617E9, 0.0, 2024-06-15 11:53:07.258
254.0, 37110.08722902385, -94560.66424377731, 77756.26513436617, -187500.02235174447, -86951.28106490149, -187500.02235174447, -187500.02235174447, -13712.996389030981, -0.19, 0.962, -0.088, 192.0, 250.0, 16.0, 30.0, 16.0, 253.0, 64.0, 0.0, 0.0, 0.0, 1.7184703872584765E9, 0.0, 2024-06-15 11:53:07.258
255.0, 37112.18829300264, -95816.58641297655, 75436.08700467194, -187500.02235174447, -88974.06923461787, -187500.02235174447, -187500.02235174447, -14053.815788485503, -0.19, 0.962, -0.088, 192.0, 0.0, 0.0, 0.0, 0.0, 0.0, 0.0, 0.0, 0.0, 0.0, 1.7184703872584896E9, 0.0, 2024-06-15 11:53:07.258
0.0, 37128.81799087739, -96407.09714974131, 75104.476523933, -187500.02235174447, -90037.09584916782, -187500.02235174447, -187500.02235174447, -14240.899889576423, -0.19, 0.962, -0.088, 192.0, 0.0, 0.0, 0.0, 0.0, 0.0, 0.0, 0.0, 0.0, 0.0, 1.7184703872584994E9, 0.0, 2024-06-15 11:53:07.258
1.0, 37121.799543118424, -95008.16851951701, 77573.11494029939, -187500.02235174447, -87910.88615785673, -187500.02235174447, -187500.02235174447, -13562.68090756904, -0.19, 0.962, -0.088, 192.0, 0.0, 0.0, 0.0, 0.0, 0.0, 0.0, 0.0, 0.0, 0.0, 1.7184703872585163E9, 0.0, 2024-06-15 11:53:07.258
2.0, 37111.741258113536, -94485.2047544962, 78027.30238763124, -187500.02235174447, -86847.43486016213, -187500.02235174447, -187500.02235174447, -13721.355941457266, -0.19, 0.962, -0.088, 192.0, 0.0, 0.0, 0.0, 0.0, 0.0, 0.0, 0.0, 0.0, 0.0, 1.718470387258534E9, 0.0, 2024-06-15 11:53:07.258
3.0, 37115.786923859945, -95597.65107603683, 75818.12302090204, -187500.02235174447, -88605.84659646114, -187500.02235174447, -187500.02235174447, -13989.353357476397, -0.19, 0.962, -0.088, 192.0, 0.0, 0.0, 0.0, 0.0, 0.0, 0.0, 0.0, 0.0, 0.0, 1.7184703872585516E9, 0.0, 2024-06-15 11:53:07.258
4.0, 37126.1134297983, -96584.36883501636, 74829.81828806619, -187500.02235174447, -90246.37523250285, -187500.02235174447, -187500.02235174447, -14428.498080789816, -0.19, 0.962, -0.088, 192.0, 0.0, 0.0, 0.0, 0.0, 0.0, 0.0, 0.0, 0.0, 0.0, 1.7184703872585614E9, 0.0, 2024-06-15 11:53:07.258
5.0, 37115.83162734886, -95329.09486640632, 77149.92936252707, -187500.02235174447, -88417.24257674726, -187500.02235174447, -187500.02235174447, -13665.051897174348, -0.19, 0.962, -0.088, 192.0, 0.0, 0.0, 0.0, 0.0, 0.0, 0.0, 0.0, 0.0, 0.0, 1.718470387258571E9, 0.0, 2024-06-15 11:53:07.258
6.0, 37110.53426391295, -94514.23967054364, 78191.4088954221, -187500.02235174447, -86884.51640421349, -187500.02235174447, -187500.02235174447, -13758.124561086246, -0.19, 0.962, -0.088, 192.0, 0.0, 0.0, 0.0, 0.0, 0.0, 0.0, 0.0, 0.0, 0.0, 1.7184703872585816E9, 0.0, 2024-06-15 11:53:07.258
7.0, 37104.09696150982, -95356.69927080862, 76263.16860475167, -187500.02235174447, -88205.72801896668, -187500.02235174447, -187500.02235174447, -13914.005626917557, -0.19, 0.962, -0.088, 192.0, 0.0, 0.0, 0.0, 0.0, 0.0, 0.0, 0.0, 0.0, 0.0, 1.7184703872586076E9, 0.0, 2024-06-15 11:53:07.258
8.0, 37125.30876699791, -96569.3931662313, 74743.78642365772, -187500.02235174447, -90209.5395576405, -187500.02235174447, -187500.02235174447, -14445.910089720499, -0.19, 0.964, -0.09, 192.0, 250.0, 16.0, 30.0, 32.0, 253.0, 48.0, 0.0, 0.0, 0.0, 1.718470387258629E9, 0.0, 2024-06-15 11:53:07.258
9.0, 37127.92392109918, -95626.95421301773, 76687.49412149121, -187500.02235174447, -88896.9333645026, -187500.02235174447, -187500.02235174447, -13762.281985554933, -0.19, 0.964, -0.09, 192.0, 0.0, 0.0, 0.0, 0.0, 0.0, 0.0, 0.0, 0.0, 0.0, 1.7184703872586474E9, 0.0, 2024-06-15 11:53:07.258
10.0, 37130.1143920558, -94552.10352565093, 78271.29403010536, -187500.02235174447, -86975.77857682451, -187500.02235174447, -187500.02235174447, -13727.23445024901, -0.19, 0.964, -0.09, 192.0, 0.0, 0.0, 0.0, 0.0, 0.0, 0.0, 0.0, 0.0, 0.0, 1.7184703872586577E9, 0.0, 2024-06-15 11:53:07.258
11.0, 37106.086266766346, -95135.39464895662, 76717.69132825034, -187500.02235174447, -87835.71724125353, -187500.02235174447, -187500.02235174447, -13855.779332611482, -0.19, 0.964, -0.09, 192.0, 0.0, 0.0, 0.0, 0.0, 0.0, 0.0, 0.0, 0.0, 0.0, 1.7184703872586677E9, 0.0, 2024-06-15 11:53:07.258
12.0, 37124.10177279732, -96542.86164556285, 74740.52306896723, -187500.02235174447, -90122.68067868719, -187500.02235174447, -187500.02235174447, -14472.15103771103, -0.19, 0.964, -0.09, 192.0, 0.0, 0.0, 0.0, 0.0, 0.0, 0.0, 0.0, 0.0, 0.0, 1.7184703872586775E9, 0.0, 2024-06-15 11:53:07.258
13.0, 37129.37678448878, -95976.53549629873, 76185.85392068076, -187500.02235174447, -89417.55019635562, -187500.02235174447, -187500.02235174447, -13962.106580985377, -0.19, 0.964, -0.09, 192.0, 0.0, 0.0, 0.0, 0.0, 0.0, 0.0, 0.0, 0.0, 0.0, 1.7184703872586873E9, 0.0, 2024-06-15 11:53:07.258
14.0, 37127.49923795453, -94674.47932654373, 78229.22804704048, -187500.02235174447, -87192.21051838524, -187500.02235174447, -187500.02235174447, -13735.348133486288, -0.19, 0.964, -0.09, 192.0, 0.0, 0.0, 0.0, 0.0, 0.0, 0.0, 0.0, 0.0, 0.0, 1.7184703872586968E9, 0.0, 2024-06-15 11:53:07.258
15.0, 37110.22133949058, -94943.19199838543, 77159.7641300874, -187500.02235174447, -87505.42551343745, -187500.02235174447, -187500.02235174447, -13846.145730751245, -0.19, 0.964, -0.09, 192.0, 0.0, 0.0, 0.0, 0.0, 0.0, 0.0, 0.0, 0.0, 0.0, 1.7184703872587063E9, 0.0, 2024-06-15 11:53:07.258
16.0, 37119.1620372727, -96413.62385912226, 74883.88715790358, -187500.02235174447, -89884.29932407133, -187500.02235174447, -187500.02235174447, -14438.109330905598, -0.19, 0.964, -0.09, 192.0, 0.0, 0.0, 0.0, 0.0, 0.0, 0.0, 0.0, 0.0, 0.0, 1.718470387258716E9, 0.0, 2024-06-15 11:53:07.258
17.0, 37121.12899078477, -96260.33559564778, 75713.53920859567, -187500.02235174447, -89840.64636715011, -187500.02235174447, -187500.02235174447, -14150.241214065698, -0.19, 0.964, -0.09, 192.0, 0.0, 0.0, 0.0, 0.0, 0.0, 0.0, 0.0, 0.0, 0.0, 1.7184703872587256E9, 0.0, 2024-06-15 11:53:07.258
18.0, 37126.15813328721, -94848.30884317265, 78050.65996058703, -187500.02235174447, -87502.51978665827, -187500.02235174447, -187500.02235174447, -13742.277174267432, -0.184, 0.962, -0.09, 192.0, 250.0, 64.0, 30.0, 16.0, 253.0, 48.0, 0.0, 0.0, 0.0, 1.7184703872587357E9, 0.0, 2024-06-15 11:53:07.258
19.0, 37107.09209526683, -94842.07270646963, 77517.21322741667, -187500.02235174447, -87307.94785117482, -187500.02235174447, -187500.02235174447, -13903.097975623366, -0.184, 0.962, -0.09, 192.0, 0.0, 0.0, 0.0, 0.0, 0.0, 0.0, 0.0, 0.0, 0.0, 1.7184703872587457E9, 0.0, 2024-06-15 11:53:07.258
20.0, 37114.26700523699, -96218.58253700526, 75149.64939947717, -187500.02235174447, -89562.68007310393, -187500.02235174447, -187500.02235174447, -14360.526425901226, -0.184, 0.962, -0.09, 192.0, 0.0, 0.0, 0.0, 0.0, 0.0, 0.0, 0.0, 0.0, 0.0, 1.7184703872587562E9, 0.0, 2024-06-15 11:53:07.258
21.0, 37122.090115796345, -96531.57401461292, 75281.21176734111, -187500.02235174447, -90224.13524676982, -187500.02235174447, -187500.02235174447, -14368.058963782665, -0.184, 0.962, -0.09, 192.0, 0.0, 0.0, 0.0, 0.0, 0.0, 0.0, 0.0, 0.0, 0.0, 1.7184703872587824E9, 0.0, 2024-06-15 11:53:07.258
22.0, 37128.4156594772, -95126.07397151875, 77760.06493092357, -187500.02235174447, -87953.17565836616, -187500.02235174447, -187500.02235174447, -13815.523840847474, -0.184, 0.962, -0.09, 192.0, 0.0, 0.0, 0.0, 0.0, 0.0, 0.0, 0.0, 0.0, 0.0, 1.7184703872588005E9, 0.0, 2024-06-15 11:53:07.258
23.0, 37115.60810990431, -94777.25264754923, 77839.59243769557, -187500.02235174447, -87177.74893972266, -187500.02235174447, -187500.02235174447, -13948.382609889819, -0.184, 0.962, -0.09, 192.0, 0.0, 0.0, 0.0, 0.0, 0.0, 0.0, 0.0, 0.0, 0.0, 1.718470387258812E9, 0.0, 2024-06-15 11:53:07.258
24.0, 37112.2106447471, -95995.9591622304, 75506.51735145062, -187500.02235174447, -89180.01820802907, -187500.02235174447, -187500.02235174447, -14268.817218401102, -0.184, 0.962, -0.09, 192.0, 0.0, 0.0, 0.0, 0.0, 0.0, 0.0, 0.0, 0.0, 0.0, 1.7184703872588217E9, 0.0, 2024-06-15 11:53:07.258
25.0, 37128.88504611076, -96741.76981947063, 74941.2417341759, -187500.02235174447, -90493.02673256716, -187500.02235174447, -187500.02235174447, -14556.30535558526, -0.184, 0.962, -0.09, 192.0, 0.0, 0.0, 0.0, 0.0, 0.0, 0.0, 0.0, 0.0, 0.0, 1.7184703872588315E9, 0.0, 2024-06-15 11:53:07.258
26.0, 37118.58089191686, -95373.23956170554, 77409.05313599744, -187500.02235174447, -88389.16878571139, -187500.02235174447, -187500.02235174447, -13836.445073657642, -0.184, 0.962, -0.09, 192.0, 0.0, 0.0, 0.0, 0.0, 0.0, 0.0, 0.0, 0.0, 0.0, 1.7184703872588449E9, 0.0, 2024-06-15 11:53:07.258
27.0, 37111.85301683581, -94738.71824010828, 78071.15651025255, -187500.02235174447, -87115.34286920344, -187500.02235174447, -187500.02235174447, -13955.468112882152, -0.184, 0.962, -0.09, 192.0, 0.0, 0.0, 0.0, 0.0, 0.0, 0.0, 0.0, 0.0, 0.0, 1.7184703872588556E9, 0.0, 2024-06-15 11:53:07.258
28.0, 37109.79665634593, -95771.68175836584, 75917.09654535014, -187500.02235174447, -88786.1581189821, -187500.02235174447, -187500.02235174447, -14188.507400573184, -0.184, 0.962, -0.09, 192.0, 0.0, 0.0, 0.0, 0.0, 0.0, 0.0, 0.0, 0.0, 0.0, 1.7184703872588654E9, 0.0, 2024-06-15 11:53:07.258
29.0, 37133.53420895746, -96835.71420141628, 74745.41810100294, -187500.02235174447, -90598.12463499601, -187500.02235174447, -187500.02235174447, -14654.496568977425, -0.17400000000000002, 0.97, -0.092, 192.0, 250.0, 144.0, 30.0, 80.0, 253.0, 32.0, 0.0, 0.0, 0.0, 1.7184703872588751E9, 0.0, 2024-06-15 11:53:07.258
30.0, 37135.32234851389, -95695.95404815127, 76976.61393602061, -187500.02235174447, -88903.66123958364, -187500.02235174447, -187500.02235174447, -13936.513833584051, -0.17400000000000002, 0.97, -0.092, 192.0, 0.0, 0.0, 0.0, 0.0, 0.0, 0.0, 0.0, 0.0, 0.0, 1.718470387258885E9, 0.0, 2024-06-15 11:53:07.258
31.0, 37121.0619355514, -94770.88240037947, 78225.89763711664, -187500.02235174447, -87162.14742209285, -187500.02235174447, -187500.02235174447, -13963.067705996957, -0.17400000000000002, 0.97, -0.092, 192.0, 0.0, 0.0, 0.0, 0.0, 0.0, 0.0, 0.0, 0.0, 0.0, 1.7184703872588947E9, 0.0, 2024-06-15 11:53:07.258
32.0, 37111.1601127577, -95556.6579767058, 76371.77573106, -187500.02235174447, -88389.4593583893, -187500.02235174447, -187500.02235174447, -14129.923478355824, -0.17400000000000002, 0.97, -0.092, 192.0, 0.0, 0.0, 0.0, 0.0, 0.0, 0.0, 0.0, 0.0, 0.0, 1.7184703872589045E9, 0.0, 2024-06-15 11:53:07.258
33.0, 37128.43801122165, -96870.76173672221, 74660.9732104508, -187500.02235174447, -90581.31612316563, -187500.02235174447, -187500.02235174447, -14720.635380820679, -0.17400000000000002, 0.97, -0.092, 192.0, 0.0, 0.0, 0.0, 0.0, 0.0, 0.0, 0.0, 0.0, 0.0, 1.718470387258914E9, 0.0, 2024-06-15 11:53:07.258
34.0, 37136.484639225564, -96021.84248230964, 76495.29147092003, -187500.02235174447, -89410.37528638546, -187500.02235174447, -187500.02235174447, -14070.557245082528, -0.17400000000000002, 0.97, -0.092, 192.0, 0.0, 0.0, 0.0, 0.0, 0.0, 0.0, 0.0, 0.0, 0.0, 1.7184703872589238E9, 0.0, 2024-06-15 11:53:07.258
35.0, 37130.404964733716, -94887.647913414, 78235.77710816587, -187500.02235174447, -87345.49878185973, -187500.02235174447, -187500.02235174447, -13995.745956390616, -0.17400000000000002, 0.97, -0.092, 192.0, 0.0, 0.0, 0.0, 0.0, 0.0, 0.0, 0.0, 0.0, 0.0, 1.7184703872589333E9, 0.0, 2024-06-15 11:53:07.258
36.0, 37108.12027551178, -95370.69146283764, 76823.90681790195, -187500.02235174447, -88044.68370016619, -187500.02235174447, -187500.02235174447, -14113.517297925628, -0.17400000000000002, 0.97, -0.092, 192.0, 0.0, 0.0, 0.0, 0.0, 0.0, 0.0, 0.0, 0.0, 0.0, 1.718470387258943E9, 0.0, 2024-06-15 11:53:07.258
37.0, 37127.610996676805, -96785.98157000322, 74737.32676951012, -187500.02235174447, -90402.7927402011, -187500.02235174447, -187500.02235174447, -14697.590732287257, -0.17400000000000002, 0.97, -0.092, 192.0, 0.0, 0.0, 0.0, 0.0, 0.0, 0.0, 0.0, 0.0, 0.0, 1.7184703872589529E9, 0.0, 2024-06-15 11:53:07.258
38.0, 37134.49533396904, -96364.6958905096, 75990.94670903048, -187500.02235174447, -89910.94260346206, -187500.02235174447, -187500.02235174447, -14258.758933396213, -0.17400000000000002, 0.97, -0.092, 192.0, 0.0, 0.0, 0.0, 0.0, 0.0, 0.0, 0.0, 0.0, 0.0, 1.7184703872589624E9, 0.0, 2024-06-15 11:53:07.258
39.0, 37132.237807779056, -95034.14124657409, 78157.03191244983, -187500.02235174447, -87593.82666275819, -187500.02235174447, -187500.02235174447, -13983.072517284456, -0.18, 0.972, -0.088, 192.0, 250.0, 96.0, 30.0, 96.0, 253.0, 64.0, 0.0, 0.0, 0.0, 1.718470387258972E9, 0.0, 2024-06-15 11:53:07.258
40.0, 37113.10471452531, -95227.72970530149, 77240.27511361541, -187500.02235174447, -87758.17903973807, -187500.02235174447, -187500.02235174447, -14116.803004360558, -0.18, 0.972, -0.088, 192.0, 0.0, 0.0, 0.0, 0.0, 0.0, 0.0, 0.0, 0.0, 0.0, 1.7184703872589817E9, 0.0, 2024-06-15 11:53:07.258
41.0, 37128.236845521555, -96691.50074619065, 74898.46049528844, -187500.02235174447, -90173.88852523429, -187500.02235174447, -187500.02235174447, -14678.681156478067, -0.18, 0.972, -0.088, 192.0, 0.0, 0.0, 0.0, 0.0, 0.0, 0.0, 0.0, 0.0, 0.0, 1.7184703872589917E9, 0.0, 2024-06-15 11:53:07.258
42.0, 37119.363202972796, -96684.41524319831, 75516.88856087787, -187500.02235174447, -90358.1786582683, -187500.02235174447, -187500.02235174447, -14480.599997115136, -0.18, 0.972, -0.088, 192.0, 0.0, 0.0, 0.0, 0.0, 0.0, 0.0, 0.0, 0.0, 0.0, 1.718470387259001E9, 0.0, 2024-06-15 11:53:07.259
43.0, 37117.820932605384, -95209.75890275942, 77963.46580546687, -187500.02235174447, -87915.71413465908, -187500.02235174447, -187500.02235174447, -13966.867502554358, -0.18, 0.972, -0.088, 192.0, 0.0, 0.0, 0.0, 0.0, 0.0, 0.0, 0.0, 0.0, 0.0, 1.7184703872590103E9, 0.0, 2024-06-15 11:53:07.259
44.0, 37118.245615750035, -95078.71062501796, 77623.09344090146, -187500.02235174447, -87496.10483599959, -187500.02235174447, -187500.02235174447, -14099.45805066324, -0.18, 0.972, -0.088, 192.0, 0.0, 0.0, 0.0, 0.0, 0.0, 0.0, 0.0, 0.0, 0.0, 1.7184703872590208E9, 0.0, 2024-06-15 11:53:07.259
45.0, 37130.94140660064, -96431.34879247533, 75223.81248757988, -187500.02235174447, -89737.09073508868, -187500.02235174447, -187500.02235174447, -14528.857413394144, -0.18, 0.972, -0.088, 192.0, 0.0, 0.0, 0.0, 0.0, 0.0, 0.0, 0.0, 0.0, 0.0, 1.7184703872590315E9, 0.0, 2024-06-15 11:53:07.259
