%OpenBCI Raw EXG Data
%Number of channels = 8
%Sample Rate = 250 Hz
%Board = OpenBCI_GUI$BoardCytonSerial
Sample Index, EXG Channel 0, EXG Channel 1, EXG Channel 2, EXG Channel 3, EXG Channel 4, EXG Channel 5, EXG Channel 6, EXG Channel 7, Accel Channel 0, Accel Channel 1, Accel Channel 2, Other, Other, Other, Other, Other, Other, Other, Analog Channel 0, Analog Channel 1, Analog Channel 2, Timestamp, Other, Timestamp (Formatted)
68.0, 35886.59744102925, 39730.6281007085, 58805.718577589825, -187500.02235174447, -66552.49792963242, -187500.02235174447, -147117.1703478301, -57844.83943520063, 0.0, 0.0, 0.0, 192.0, 0.0, 0.0, 0.0, 0.0, 0.0, 0.0, 0.0, 0.0, 0.0, 1.7184699137486837E9, 0.0, 2024-06-15 11:45:13.748
69.0, 35843.88325737516, 39412.451018387204, 58507.412196089295, -187500.02235174447, -66426.63525660458, -187500.02235174447, -147151.23440637998, -58088.518153252386, 0.0, 0.0, 0.0, 192.0, 0.0, 0.0, 0.0, 0.0, 0.0, 0.0, 0.0, 0.0, 0.0, 1.7184699137487E9, 0.0, 2024-06-15 11:45:13.748
70.0, 35824.68310888804, 39353.665930469746, 57967.41640179353, -187500.02235174447, -66235.57254500063, -187500.02235174447, -147162.47733384103, -58169.09619201377, 0.0, 0.0, 0.0, 192.0, 0.0, 0.0, 0.0, 0.0, 0.0, 0.0, 0.0, 0.0, 0.0, 1.7184699137487116E9, 0.0, 2024-06-15 11:45:13.748
71.0, 35857.65193195963, 39532.65870006785, 57978.92755018802, -187500.02235174447, -66231.30336180965, -187500.02235174447, -147149.84859822376, -58166.90572105715, 0.0, 0.0, 0.0, 192.0, 0.0, 0.0, 0.0, 0.0, 0.0, 0.0, 0.0, 0.0, 0.0, 1.7184699137487214E9, 0.0, 2024-06-15 11:45:13.748
72.0, 35891.760693998425, 39715.719487156806, 58707.706178153305, -187500.02235174447, -66615.06046236283, -187500.02235174447, -147117.8185484193, -57948.93150912899, 0.0, 0.0, 0.0, 192.0, 0.0, 0.0, 0.0, 0.0, 0.0, 0.0, 0.0, 0.0, 0.0, 1.7184699137487373E9, 0.0, 2024-06-15 11:45:13.748
73.0, 35861.205859328016, 39453.39941422932, 58622.8366044565, -187500.02235174447, -66623.55412525585, -187500.02235174447, -147155.12360991523, -58100.744557469436, 0.0, 0.0, 0.0, 192.0, 0.0, 0.0, 0.0, 0.0, 0.0, 0.0, 0.0, 0.0, 0.0, 1.7184699137487485E9, 0.0, 2024-06-15 11:45:13.748
74.0, 35828.818181612274, 39282.94501101315, 58040.283088717835, -187500.02235174447, -66360.74231395034, -187500.02235174447, -147159.90688322866, -58261.92298673666, 0.0, 0.0, 0.0, 192.0, 0.0, 0.0, 0.0, 0.0, 0.0, 0.0, 0.0, 0.0, 0.0, 1.7184699137487588E9, 0.0, 2024-06-15 11:45:13.748
75.0, 35850.05233884482, 39308.917738070224, 57905.92675279698, -187500.02235174447, -66360.85407267262, -187500.02235174447, -147180.3363776608, -58263.57701582635, 0.11, 0.9520000000000001, 0.21, 192.0, 3.0, 112.0, 29.0, 192.0, 6.0, 144.0, 0.0, 0.0, 0.0, 1.718469913748769E9, 0.0, 2024-06-15 11:45:13.748
76.0, 35926.96469151553, 39549.44486015378, 58536.424760392285, -187500.02235174447, -66694.744431346, -187500.02235174447, -147160.57743556233, -58114.669694265096, 0.11, 0.9520000000000001, 0.21, 192.0, 0.0, 0.0, 0.0, 0.0, 0.0, 0.0, 0.0, 0.0, 0.0, 1.7184699137487817E9, 0.0, 2024-06-15 11:45:13.748
77.0, 35910.73732504098, 39383.013770939564, 58700.352454227504, -187500.02235174447, -66827.40203468825, -187500.02235174447, -147173.69790955758, -58128.773645016394, 0.11, 0.9520000000000001, 0.21, 192.0, 0.0, 0.0, 0.0, 0.0, 0.0, 0.0, 0.0, 0.0, 0.0, 1.7184699137487943E9, 0.0, 2024-06-15 11:45:13.748
78.0, 35844.687920175544, 39152.388471649705, 58079.77862117036, -187500.02235174447, -66541.94790624952, -187500.02235174447, -147205.9961802955, -58397.59807558037, 0.11, 0.9520000000000001, 0.21, 192.0, 0.0, 0.0, 0.0, 0.0, 0.0, 0.0, 0.0, 0.0, 0.0, 1.7184699137488036E9, 0.0, 2024-06-15 11:45:13.748
79.0, 35860.71412095, 39238.21917035808, 57933.50880545483, -187500.02235174447, -66440.11335851114, -187500.02235174447, -147148.12751390072, -58297.30579820941, 0.11, 0.9520000000000001, 0.21, 192.0, 0.0, 0.0, 0.0, 0.0, 0.0, 0.0, 0.0, 0.0, 0.0, 1.7184699137488139E9, 0.0, 2024-06-15 11:45:13.748
80.0, 35958.21243026405, 39500.136911885376, 58441.22868075713, -187500.02235174447, -66675.32076541433, -187500.02235174447, -147120.4337025206, -58204.88133488671, 0.11, 0.9520000000000001, 0.21, 192.0, 0.0, 0.0, 0.0, 0.0, 0.0, 0.0, 0.0, 0.0, 0.0, 1.7184699137488232E9, 0.0, 2024-06-15 11:45:13.748
81.0, 35938.654653865655, 39371.25675335607, 58789.40180413745, -187500.02235174447, -66969.46972244617, -187500.02235174447, -147156.79999074936, -58136.261479408924, 0.11, 0.9520000000000001, 0.21, 192.0, 0.0, 0.0, 0.0, 0.0, 0.0, 0.0, 0.0, 0.0, 0.0, 1.7184699137488325E9, 0.0, 2024-06-15 11:45:13.748
82.0, 35866.95025765303, 39102.85700593675, 58181.12143053072, -187500.02235174447, -66698.05248952538, -187500.02235174447, -147217.52968043444, -58483.87580917786, 0.11, 0.9520000000000001, 0.21, 192.0, 0.0, 0.0, 0.0, 0.0, 0.0, 0.0, 0.0, 0.0, 0.0, 1.7184699137488425E9, 0.0, 2024-06-15 11:45:13.748
83.0, 35880.7189322375, 39175.36606494976, 57932.65943916553, -187500.02235174447, -66608.53375298188, -187500.02235174447, -147196.87666855773, -58412.17141296523, 0.11, 0.9520000000000001, 0.21, 192.0, 0.0, 0.0, 0.0, 0.0, 0.0, 0.0, 0.0, 0.0, 0.0, 1.7184699137488515E9, 0.0, 2024-06-15 11:45:13.748
84.0, 35924.595406603265, 39389.2946111315, 58261.252434402995, -187500.02235174447, -66778.85404573132, -187500.02235174447, -147194.30621794538, -58399.810898281445, 0.11, 0.9520000000000001, 0.21, 192.0, 0.0, 0.0, 0.0, 0.0, 0.0, 0.0, 0.0, 0.0, 0.0, 1.7184699137488613E9, 0.0, 2024-06-15 11:45:13.748
85.0, 35936.9335695426, 39367.926343432235, 58772.05685044013, -187500.02235174447, -67173.04941094511, -187500.02235174447, -147222.71528514806, -58244.265108616964, 0.11, 0.9520000000000001, 0.21, 192.0, 0.0, 0.0, 0.0, 0.0, 0.0, 0.0, 0.0, 0.0, 0.0, 1.7184699137488704E9, 0.0, 2024-06-15 11:45:13.748
86.0, 35850.27585628937, 39072.548040455345, 58276.76454505498, -187500.02235174447, -66893.96552967615, -187500.02235174447, -147254.72298320808, -58570.824095109005, 0.106, 0.9460000000000001, 0.186, 192.0, 3.0, 80.0, 29.0, 144.0, 5.0, 208.0, 0.0, 0.0, 0.0, 1.71846991374888E9, 0.0, 2024-06-15 11:45:13.748
87.0, 35849.024158599874, 39104.46633153753, 57973.69724198547, -187500.02235174447, -66751.22728958455, -187500.02235174447, -147224.41401772667, -58505.89227746634, 0.106, 0.9460000000000001, 0.186, 192.0, 0.0, 0.0, 0.0, 0.0, 0.0, 0.0, 0.0, 0.0, 0.0, 1.71846991374889E9, 0.0, 2024-06-15 11:45:13.748
88.0, 35908.524502339904, 39314.21510150613, 58192.051433569366, -187500.02235174447, -66791.77335402649, -187500.02235174447, -147179.79993579388, -58480.29953006501, 0.106, 0.9460000000000001, 0.186, 192.0, 0.0, 0.0, 0.0, 0.0, 0.0, 0.0, 0.0, 0.0, 0.0, 1.7184699137489018E9, 0.0, 2024-06-15 11:45:13.748
89.0, 35929.155162472154, 39348.18975307819, 58807.84199331308, -187500.02235174447, -67213.50606840922, -187500.02235174447, -147175.6872148141, -58255.44098084462, 0.106, 0.9460000000000001, 0.186, 192.0, 0.0, 0.0, 0.0, 0.0, 0.0, 0.0, 0.0, 0.0, 0.0, 1.7184699137489116E9, 0.0, 2024-06-15 11:45:13.748
90.0, 35865.89972566363, 39042.48494416296, 58398.26862791403, -187500.02235174447, -67056.28389791059, -187500.02235174447, -147261.7637827115, -58599.36727277843, 0.106, 0.9460000000000001, 0.186, 192.0, 0.0, 0.0, 0.0, 0.0, 0.0, 0.0, 0.0, 0.0, 0.0, 1.718469913748926E9, 0.0, 2024-06-15 11:45:13.748
91.0, 35813.9542715495, 39005.62691755616, 58017.10432971768, -187500.02235174447, -66876.17354108972, -187500.02235174447, -147250.3643930393, -58601.445985012775, 0.106, 0.9460000000000001, 0.186, 192.0, 0.0, 0.0, 0.0, 0.0, 0.0, 0.0, 0.0, 0.0, 0.0, 1.718469913748936E9, 0.0, 2024-06-15 11:45:13.748
92.0, 35868.93956290955, 39213.78871366844, 58073.564836211786, -187500.02235174447, -66878.83339867991, -187500.02235174447, -147225.82217762736, -58599.769604178626, 0.106, 0.9460000000000001, 0.186, 192.0, 0.0, 0.0, 0.0, 0.0, 0.0, 0.0, 0.0, 0.0, 0.0, 1.7184699137489555E9, 0.0, 2024-06-15 11:45:13.748
93.0, 35957.318360485835, 39425.43738191573, 58673.75387832569, -187500.02235174447, -67352.37745671003, -187500.02235174447, -147255.1029628638, -58420.41920666924, 0.106, 0.9460000000000001, 0.186, 192.0, 0.0, 0.0, 0.0, 0.0, 0.0, 0.0, 0.0, 0.0, 0.0, 1.7184699137489688E9, 0.0, 2024-06-15 11:45:13.748
94.0, 35921.890845524176, 39164.65957935567, 58455.265576275066, -187500.02235174447, -67294.55349380417, -187500.02235174447, -147323.2310799636, -58666.6460235889, 0.106, 0.9460000000000001, 0.186, 192.0, 0.0, 0.0, 0.0, 0.0, 0.0, 0.0, 0.0, 0.0, 0.0, 1.7184699137489812E9, 0.0, 2024-06-15 11:45:13.748
95.0, 35849.49354523344, 39043.44606917454, 58039.14314975061, -187500.02235174447, -67015.04492939054, -187500.02235174447, -147285.41192834522, -58717.33978001354, 0.106, 0.9460000000000001, 0.186, 192.0, 0.0, 0.0, 0.0, 0.0, 0.0, 0.0, 0.0, 0.0, 0.0, 1.718469913748994E9, 0.0, 2024-06-15 11:45:13.748
96.0, 35897.840368490266, 39207.977260110056, 58017.73017856243, -187500.02235174447, -66945.37454192336, -187500.02235174447, -147234.87463413176, -58665.64019508842, 0.112, 0.98, 0.17200000000000001, 192.0, 3.0, 128.0, 30.0, 160.0, 5.0, 96.0, 0.0, 0.0, 0.0, 1.7184699137490077E9, 0.0, 2024-06-15 11:45:13.749
97.0, 35978.284296784914, 39408.830035785446, 58563.93975781677, -187500.02235174447, -67364.26858476027, -187500.02235174447, -147249.8055994279, -58523.416045119295, 0.112, 0.98, 0.17200000000000001, 192.0, 0.0, 0.0, 0.0, 0.0, 0.0, 0.0, 0.0, 0.0, 0.0, 1.7184699137490258E9, 0.0, 2024-06-15 11:45:13.749
98.0, 35940.688662611086, 39110.76952347392, 58524.332466641965, -187500.02235174447, -67457.72122832791, -187500.02235174447, -147321.6664578517, -58667.495389878204, 0.112, 0.98, 0.17200000000000001, 192.0, 0.0, 0.0, 0.0, 0.0, 0.0, 0.0, 0.0, 0.0, 0.0, 1.7184699137490442E9, 0.0, 2024-06-15 11:45:13.749
99.0, 35860.356493038715, 38845.54372376725, 58035.38805668212, -187500.02235174447, -67140.08058787353, -187500.02235174447, -147310.2670681795, -58821.45420568636, 0.112, 0.98, 0.17200000000000001, 192.0, 0.0, 0.0, 0.0, 0.0, 0.0, 0.0, 0.0, 0.0, 0.0, 1.718469913749057E9, 0.0, 2024-06-15 11:45:13.749
100.0, 35901.43899934757, 38869.59420080116, 57938.58265144619, -187500.02235174447, -67049.73483678518, -187500.02235174447, -147260.17680885518, -58738.529233757174, 0.112, 0.98, 0.17200000000000001, 192.0, 0.0, 0.0, 0.0, 0.0, 0.0, 0.0, 0.0, 0.0, 0.0, 1.718469913749074E9, 0.0, 2024-06-15 11:45:13.749
101.0, 36004.05585814189, 39024.938824765544, 58402.269590171534, -187500.02235174447, -67385.12276233707, -187500.02235174447, -147263.9542536681, -58660.856921774975, 0.112, 0.98, 0.17200000000000001, 192.0, 0.0, 0.0, 0.0, 0.0, 0.0, 0.0, 0.0, 0.0, 0.0, 1.7184699137490897E9, 0.0, 2024-06-15 11:45:13.749
102.0, 35977.054950839876, 38754.57212383415, 58574.26626375512, -187500.02235174447, -67631.41663449009, -187500.02235174447, -147337.40208594824, -58701.201820516806, 0.112, 0.98, 0.17200000000000001, 192.0, 0.0, 0.0, 0.0, 0.0, 0.0, 0.0, 0.0, 0.0, 0.0, 1.7184699137491047E9, 0.0, 2024-06-15 11:45:13.749
103.0, 35909.39622037366, 38449.96255039723, 58047.882681832634, -187500.02235174447, -67324.05779648517, -187500.02235174447, -147381.94911264768, -58978.743431418356, 0.112, 0.98, 0.17200000000000001, 192.0, 0.0, 0.0, 0.0, 0.0, 0.0, 0.0, 0.0, 0.0, 0.0, 1.7184699137491193E9, 0.0, 2024-06-15 11:45:13.749
104.0, 35927.545836871366, 38467.978056428205, 57897.522496881786, -187500.02235174447, -67222.62558014698, -187500.02235174447, -147347.19215001966, -58878.138229625016, 0.112, 0.98, 0.17200000000000001, 192.0, 0.0, 0.0, 0.0, 0.0, 0.0, 0.0, 0.0, 0.0, 0.0, 1.7184699137491329E9, 0.0, 2024-06-15 11:45:13.749
105.0, 35989.21429982356, 38621.44513385834, 58228.70829447607, -187500.02235174447, -67468.78534183328, -187500.02235174447, -147350.38844947677, -58865.12951435203, 0.112, 0.98, 0.17200000000000001, 192.0, 0.0, 0.0, 0.0, 0.0, 0.0, 0.0, 0.0, 0.0, 0.0, 1.718469913749147E9, 0.0, 2024-06-15 11:45:13.749
106.0, 35968.62834318022, 38440.708928192726, 58575.11563004442, -187500.02235174447, -67838.30438116842, -187500.02235174447, -147404.21145012515, -58791.86049602753, 0.14400000000000002, 0.99, 0.202, 192.0, 4.0, 128.0, 30.0, 240.0, 6.0, 80.0, 0.0, 0.0, 0.0, 1.7184699137491615E9, 0.0, 2024-06-15 11:45:13.749
107.0, 35917.9792902445, 38122.73301157153, 58092.09443236524, -187500.02235174447, -67526.58695299471, -187500.02235174447, -147448.46790414667, -59104.31553176827, 0.14400000000000002, 0.99, 0.202, 192.0, 0.0, 0.0, 0.0, 0.0, 0.0, 0.0, 0.0, 0.0, 0.0, 1.718469913749177E9, 0.0, 2024-06-15 11:45:13.749
108.0, 35929.088107238786, 38153.71252938658, 57926.93739258497, -187500.02235174447, -67366.48140746134, -187500.02235174447, -147394.35433082038, -58965.82412312319, 0.14400000000000002, 0.99, 0.202, 192.0, 0.0, 0.0, 0.0, 0.0, 0.0, 0.0, 0.0, 0.0, 0.0, 1.7184699137491949E9, 0.0, 2024-06-15 11:45:13.749
109.0, 35995.293974315406, 38335.38750831932, 58135.41211311962, -187500.02235174447, -67517.60155172367, -187500.02235174447, -147393.66142674227, -58988.06410885622, 0.14400000000000002, 0.99, 0.202, 192.0, 0.0, 0.0, 0.0, 0.0, 0.0, 0.0, 0.0, 0.0, 0.0, 1.7184699137492137E9, 0.0, 2024-06-15 11:45:13.749
110.0, 36017.04222167042, 38282.033894304506, 58623.26128760115, -187500.02235174447, -67960.74723729459, -187500.02235174447, -147419.23182239913, -58817.028560284205, 0.14400000000000002, 0.99, 0.202, 192.0, 0.0, 0.0, 0.0, 0.0, 0.0, 0.0, 0.0, 0.0, 0.0, 1.718469913749227E9, 0.0, 2024-06-15 11:45:13.749
111.0, 35920.549740856855, 37909.698535168, 58221.17575659463, -187500.02235174447, -67675.0695914113, -187500.02235174447, -147448.043221002, -59093.56434268527, 0.14400000000000002, 0.99, 0.202, 192.0, 0.0, 0.0, 0.0, 0.0, 0.0, 0.0, 0.0, 0.0, 0.0, 1.7184699137492428E9, 0.0, 2024-06-15 11:45:13.749
112.0, 35890.79956898684, 37860.12236596613, 57981.833276967205, -187500.02235174447, -67458.34707717266, -187500.02235174447, -147394.15316512028, -58959.52093118679, 0.14400000000000002, 0.99, 0.202, 192.0, 0.0, 0.0, 0.0, 0.0, 0.0, 0.0, 0.0, 0.0, 0.0, 1.7184699137492528E9, 0.0, 2024-06-15 11:45:13.749
113.0, 35947.17066850313, 38008.94028054956, 58030.29185894631, -187500.02235174447, -67575.33610765173, -187500.02235174447, -147426.92082249175, -59026.30794361925, 0.14400000000000002, 0.99, 0.202, 192.0, 0.0, 0.0, 0.0, 0.0, 0.0, 0.0, 0.0, 0.0, 0.0, 1.7184699137492623E9, 0.0, 2024-06-15 11:45:13.749
114.0, 35973.322209515834, 38015.08701027477, 58556.49662691315, -187500.02235174447, -68096.8693610274, -187500.02235174447, -147464.47175317668, -58859.42981951593, 0.14400000000000002, 0.99, 0.202, 192.0, 0.0, 0.0, 0.0, 0.0, 0.0, 0.0, 0.0, 0.0, 0.0, 1.7184699137492723E9, 0.0, 2024-06-15 11:45:13.749
115.0, 35885.032818917374, 37594.69540055936, 58268.941434495624, -187500.02235174447, -67928.42661481221, -187500.02235174447, -147506.69419845275, -59104.092014323716, 0.14400000000000002, 0.99, 0.202, 192.0, 0.0, 0.0, 0.0, 0.0, 0.0, 0.0, 0.0, 0.0, 0.0, 1.7184699137492824E9, 0.0, 2024-06-15 11:45:13.749
116.0, 35837.08832706074, 37486.580012629034, 57966.030593637304, -187500.02235174447, -67639.93264912757, -187500.02235174447, -147447.8420553019, -59021.815242983736, 0.178, 0.972, 0.22, 192.0, 5.0, 144.0, 30.0, 96.0, 6.0, 224.0, 0.0, 0.0, 0.0, 1.718469913749292E9, 0.0, 2024-06-15 11:45:13.749
117.0, 35887.0221241739, 37609.425200155405, 57912.25229647783, -187500.02235174447, -67702.31636790233, -187500.02235174447, -147474.8206108595, -59086.523543181844, 0.178, 0.972, 0.22, 192.0, 0.0, 0.0, 0.0, 0.0, 0.0, 0.0, 0.0, 0.0, 0.0, 1.7184699137493017E9, 0.0, 2024-06-15 11:45:13.749
118.0, 35913.75481054244, 37701.46968382236, 58423.28022995952, -187500.02235174447, -68229.07992948055, -187500.02235174447, -147501.30742803903, -58971.613224937115, 0.178, 0.972, 0.22, 192.0, 0.0, 0.0, 0.0, 0.0, 0.0, 0.0, 0.0, 0.0, 0.0, 1.718469913749312E9, 0.0, 2024-06-15 11:45:13.749
119.0, 35844.352644008715, 37384.9242788463, 58281.86074279079, -187500.02235174447, -68220.80978403208, -187500.02235174447, -147551.7329635302, -59156.931538216064, 0.178, 0.972, 0.22, 192.0, 0.0, 0.0, 0.0, 0.0, 0.0, 0.0, 0.0, 0.0, 0.0, 1.718469913749322E9, 0.0, 2024-06-15 11:45:13.749
120.0, 35775.37516061964, 37241.60489339887, 57881.25042691833, -187500.02235174447, -67897.49180048607, -187500.02235174447, -147529.24710860816, -59182.3678234062, 0.178, 0.972, 0.22, 192.0, 0.0, 0.0, 0.0, 0.0, 0.0, 0.0, 0.0, 0.0, 0.0, 1.7184699137493317E9, 0.0, 2024-06-15 11:45:13.749
121.0, 35795.98346900743, 37349.60852260691, 57797.43138521092, -187500.02235174447, -67860.58907039036, -187500.02235174447, -147499.9663233717, -59144.81689272129, 0.178, 0.972, 0.22, 192.0, 0.0, 0.0, 0.0, 0.0, 0.0, 0.0, 0.0, 0.0, 0.0, 1.7184699137493408E9, 0.0, 2024-06-15 11:45:13.749
122.0, 35891.06778992031, 37587.02875221118, 58216.034855369915, -187500.02235174447, -68377.24964347477, -187500.02235174447, -147554.19165542026, -59133.75277921591, 0.178, 0.972, 0.22, 192.0, 0.0, 0.0, 0.0, 0.0, 0.0, 0.0, 0.0, 0.0, 0.0, 1.7184699137493503E9, 0.0, 2024-06-15 11:45:13.749
123.0, 35851.63931270115, 37364.38302569187, 58273.143562453224, -187500.02235174447, -68525.28524700228, -187500.02235174447, -147596.01176929616, -59210.01693129742, 0.178, 0.972, 0.22, 192.0, 0.0, 0.0, 0.0, 0.0, 0.0, 0.0, 0.0, 0.0, 0.0, 1.7184699137493596E9, 0.0, 2024-06-15 11:45:13.749
124.0, 35768.22260239394, 37131.67901416767, 57865.17952265496, -187500.02235174447, -68105.16185822032, -187500.02235174447, -147544.40159134884, -59272.40065007218, 0.178, 0.972, 0.22, 192.0, 0.0, 0.0, 0.0, 0.0, 0.0, 0.0, 0.0, 0.0, 0.0, 1.7184699137493691E9, 0.0, 2024-06-15 11:45:13.749
125.0, 35813.46253317148, 37237.62628288582, 57763.88141678351, -187500.02235174447, -67987.83755157443, -187500.02235174447, -147480.6097126734, -59132.90341292661, 0.178, 0.972, 0.22, 192.0, 0.0, 0.0, 0.0, 0.0, 0.0, 0.0, 0.0, 0.0, 0.0, 1.7184699137493792E9, 0.0, 2024-06-15 11:45:13.749
126.0, 35891.49247306496, 37466.88812576391, 58062.67953666205, -187500.02235174447, -68431.47497552335, -187500.02235174447, -147534.8797482109, -59216.16366102263, 0.178, 0.972, 0.22, 192.0, 0.0, 0.0, 0.0, 0.0, 0.0, 0.0, 0.0, 0.0, 0.0, 1.7184699137493887E9, 0.0, 2024-06-15 11:45:13.749
127.0, 35867.419644286594, 37303.69803949571, 58262.07944894784, -187500.02235174447, -68776.3847442132, -187500.02235174447, -147596.81643209653, -59243.72336193602, 0.18, 0.976, 0.22, 192.0, 5.0, 160.0, 30.0, 128.0, 6.0, 224.0, 0.0, 0.0, 0.0, 1.7184699137493982E9, 0.0, 2024-06-15 11:45:13.749
128.0, 35811.070896514764, 37059.32641736584, 57787.99894905078, -187500.02235174447, -68403.2447222763, -187500.02235174447, -147617.11181606195, -59448.53239638, 0.18, 0.976, 0.22, 192.0, 0.0, 0.0, 0.0, 0.0, 0.0, 0.0, 0.0, 0.0, 0.0, 1.7184699137494078E9, 0.0, 2024-06-15 11:45:13.749
129.0, 35835.07667005977, 37153.2707993115, 57661.48807543374, -187500.02235174447, -68205.61059780247, -187500.02235174447, -147532.1751871318, -59218.7788151239, 0.18, 0.976, 0.22, 192.0, 0.0, 0.0, 0.0, 0.0, 0.0, 0.0, 0.0, 0.0, 0.0, 1.7184699137494173E9, 0.0, 2024-06-15 11:45:13.749
130.0, 35939.213447477036, 37406.471360501215, 57873.38261287005, -187500.02235174447, -68502.37470893559, -187500.02235174447, -147528.73301848568, -59304.00601673198, 0.18, 0.976, 0.22, 192.0, 0.0, 0.0, 0.0, 0.0, 0.0, 0.0, 0.0, 0.0, 0.0, 1.7184699137494268E9, 0.0, 2024-06-15 11:45:13.749
131.0, 35957.3854157192, 37356.24699071014, 58181.903741586655, -187500.02235174447, -69029.16062225826, -187500.02235174447, -147614.96604859424, -59293.52304858244, 0.18, 0.976, 0.22, 192.0, 0.0, 0.0, 0.0, 0.0, 0.0, 0.0, 0.0, 0.0, 0.0, 1.7184699137494364E9, 0.0, 2024-06-15 11:45:13.749
132.0, 35871.889993177654, 37067.37304536975, 57753.95724224535, -187500.02235174447, -68677.43357150955, -187500.02235174447, -147627.32656327804, -59526.83055720694, 0.18, 0.976, 0.22, 192.0, 0.0, 0.0, 0.0, 0.0, 0.0, 0.0, 0.0, 0.0, 0.0, 1.7184699137494493E9, 0.0, 2024-06-15 11:45:13.749
133.0, 35866.52557450838, 37105.236900477044, 57624.98767673823, -187500.02235174447, -68360.37407641103, -187500.02235174447, -147495.20540180273, -59219.8293471133, 0.18, 0.976, 0.22, 192.0, 0.0, 0.0, 0.0, 0.0, 0.0, 0.0, 0.0, 0.0, 0.0, 1.7184699137494588E9, 0.0, 2024-06-15 11:45:13.749
134.0, 35965.297933256385, 37339.8631620244, 57705.65512247743, -187500.02235174447, -68573.9896981704, -187500.02235174447, -147517.1101113689, -59376.98446237856, 0.18, 0.976, 0.22, 192.0, 0.0, 0.0, 0.0, 0.0, 0.0, 0.0, 0.0, 0.0, 0.0, 1.7184699137494795E9, 0.0, 2024-06-15 11:45:13.749
135.0, 36003.16178836367, 37397.374200507904, 58101.728034225474, -187500.02235174447, -69214.63539774841, -187500.02235174447, -147621.71627541975, -59385.03109038247, 0.18, 0.976, 0.22, 192.0, 0.0, 0.0, 0.0, 0.0, 0.0, 0.0, 0.0, 0.0, 0.0, 1.7184699137494984E9, 0.0, 2024-06-15 11:45:13.749
136.0, 35895.471083578006, 37060.60046679979, 57745.41887586342, -187500.02235174447, -68956.24923184505, -187500.02235174447, -147654.77450546916, -59645.33950630898, 0.18, 0.976, 0.22, 192.0, 0.0, 0.0, 0.0, 0.0, 0.0, 0.0, 0.0, 0.0, 0.0, 1.7184699137495136E9, 0.0, 2024-06-15 11:45:13.749
137.0, 35829.08640254574, 37003.5364632054, 57506.97046601421, -187500.02235174447, -68610.66891082155, -187500.02235174447, -147576.4763446422, -59393.68121548668, 0.17400000000000002, 0.968, 0.2, 192.0, 5.0, 112.0, 30.0, 64.0, 6.0, 64.0, 0.0, 0.0, 0.0, 1.7184699137495303E9, 0.0, 2024-06-15 11:45:13.749
138.0, 35911.07260120781, 37193.816863753425, 57469.397183584835, -187500.02235174447, -68761.05144751686, -187500.02235174447, -147604.86306010044, -59547.64003129483, 0.17400000000000002, 0.968, 0.2, 192.0, 0.0, 0.0, 0.0, 0.0, 0.0, 0.0, 0.0, 0.0, 0.0, 1.7184699137495403E9, 0.0, 2024-06-15 11:45:13.749
139.0, 35978.91014562966, 37355.48703139866, 57920.07540703719, -187500.02235174447, -69438.62222893504, -187500.02235174447, -147670.17485739887, -59567.15310420431, 0.17400000000000002, 0.968, 0.2, 192.0, 0.0, 0.0, 0.0, 0.0, 0.0, 0.0, 0.0, 0.0, 0.0, 1.71846991374955E9, 0.0, 2024-06-15 11:45:13.749
140.0, 35890.844272475755, 37043.12140263574, 57679.70474716482, -187500.02235174447, -69347.69533249084, -187500.02235174447, -147729.3622767165, -59812.30703739012, 0.17400000000000002, 0.968, 0.2, 192.0, 0.0, 0.0, 0.0, 0.0, 0.0, 0.0, 0.0, 0.0, 0.0, 1.7184699137495592E9, 0.0, 2024-06-15 11:45:13.749
141.0, 35814.73658260544, 36959.70469232854, 57430.393389510326, -187500.02235174447, -68867.53515810193, -187500.02235174447, -147605.37715022292, -59544.53313881555, 0.17400000000000002, 0.968, 0.2, 192.0, 0.0, 0.0, 0.0, 0.0, 0.0, 0.0, 0.0, 0.0, 0.0, 1.7184699137495844E9, 0.0, 2024-06-15 11:45:13.749
142.0, 35849.65000744462, 37106.33213595535, 57336.76193198704, -187500.02235174447, -68906.38248996527, -187500.02235174447, -147599.92332457582, -59601.57479066549, 0.17400000000000002, 0.968, 0.2, 192.0, 0.0, 0.0, 0.0, 0.0, 0.0, 0.0, 0.0, 0.0, 0.0, 1.7184699137495935E9, 0.0, 2024-06-15 11:45:13.749
143.0, 35920.77325830141, 37306.87198720837, 57682.901046621926, -187500.02235174447, -69666.96765029045, -187500.02235174447, -147730.7704366172, -59786.468420799785, 0.17400000000000002, 0.968, 0.2, 192.0, 0.0, 0.0, 0.0, 0.0, 0.0, 0.0, 0.0, 0.0, 0.0, 1.7184699137496028E9, 0.0, 2024-06-15 11:45:13.749
144.0, 35849.739414422445, 37005.77163765093, 57611.733092276234, -187500.02235174447, -69735.47574704597, -187500.02235174447, -147775.16100110544, -59951.98308849133, 0.17400000000000002, 0.968, 0.2, 192.0, 0.0, 0.0, 0.0, 0.0, 0.0, 0.0, 0.0, 0.0, 0.0, 1.7184699137496116E9, 0.0, 2024-06-15 11:45:13.749
145.0, 35756.331474343715, 36833.55144662278, 57324.11084462534, -187500.02235174447, -69124.13318444886, -187500.02235174447, -147620.08459807452, -59701.040053491604, 0.17400000000000002, 0.968, 0.2, 192.0, 0.0, 0.0, 0.0, 0.0, 0.0, 0.0, 0.0, 0.0, 0.0, 1.718469913749621E9, 0.0, 2024-06-15 11:45:13.749
146.0, 35790.172015449054, 36964.06328249732, 57192.03438663893, -187500.02235174447, -69062.12944532985, -187500.02235174447, -147588.05454827007, -59642.65729697434, 0.17400000000000002, 0.968, 0.2, 192.0, 0.0, 0.0, 0.0, 0.0, 0.0, 0.0, 0.0, 0.0, 0.0, 1.7184699137496297E9, 0.0, 2024-06-15 11:45:13.749
147.0, 35915.095915209764, 37219.56607336594, 57236.536709849446, -187500.02235174447, -70363.38095228445, -187500.02235174447, -147937.74759027333, -60621.529593650055, 0.164, 0.9580000000000001, 0.23600000000000002, 192.0, 5.0, 32.0, 29.0, 240.0, 7.0, 96.0, 0.0, 0.0, 0.0, 1.7184699137496388E9, 0.0, 2024-06-15 11:45:13.749
148.0, 35851.59460921223, 37010.95724236456, 57035.52747196287, -187500.02235174447, -71669.63924999705, -187500.02235174447, -148377.36170022032, -61913.14749874443, 0.164, 0.9580000000000001, 0.23600000000000002, 192.0, 0.0, 0.0, 0.0, 0.0, 0.0, 0.0, 0.0, 0.0, 0.0, 1.7184699137496476E9, 0.0, 2024-06-15 11:45:13.749
149.0, 35503.823817232114, 36682.25248840481, 57562.24633005218, -187500.02235174447, -68737.96209549453, -187500.02235174447, -147387.8946766728, -59009.58883876668, 0.164, 0.9580000000000001, 0.23600000000000002, 192.0, 0.0, 0.0, 0.0, 0.0, 0.0, 0.0, 0.0, 0.0, 0.0, 1.7184699137496567E9, 0.0, 2024-06-15 11:45:13.749
150.0, 35639.38714735355, 36738.51182919882, 57691.12648858148, -187500.02235174447, -67150.87648044544, -187500.02235174447, -146825.56948966617, -57208.06058741338, 0.164, 0.9580000000000001, 0.23600000000000002, 192.0, 0.0, 0.0, 0.0, 0.0, 0.0, 0.0, 0.0, 0.0, 0.0, 1.7184699137496657E9, 0.0, 2024-06-15 11:45:13.749
151.0, 35976.5408607174, 37071.28460064943, 56761.71860238536, -187500.02235174447, -70685.62605209662, -187500.02235174447, -148020.27023080233, -61036.243860273826, 0.164, 0.9580000000000001, 0.23600000000000002, 192.0, 0.0, 0.0, 0.0, 0.0, 0.0, 0.0, 0.0, 0.0, 0.0, 1.7184699137496753E9, 0.0, 2024-06-15 11:45:13.749
152.0, 35854.67914994707, 36897.119807853676, 56713.08120645061, -187500.02235174447, -72537.69159766336, -187500.02235174447, -148557.78498146357, -62645.81533024494, 0.164, 0.9580000000000001, 0.23600000000000002, 192.0, 0.0, 0.0, 0.0, 0.0, 0.0, 0.0, 0.0, 0.0, 0.0, 1.718469913749684E9, 0.0, 2024-06-15 11:45:13.749
153.0, 35471.100863349544, 36436.763279052175, 57216.42013983967, -187500.02235174447, -69662.11732174364, -187500.02235174447, -147623.1467870649, -59857.166988511926, 0.164, 0.9580000000000001, 0.23600000000000002, 192.0, 0.0, 0.0, 0.0, 0.0, 0.0, 0.0, 0.0, 0.0, 0.0, 1.7184699137496932E9, 0.0, 2024-06-15 11:45:13.749
154.0, 35470.69853194935, 36386.02481913863, 57612.49305158771, -187500.02235174447, -67162.61114628449, -187500.02235174447, -146743.24801483727, -56990.71222432998, 0.164, 0.9580000000000001, 0.23600000000000002, 192.0, 0.0, 0.0, 0.0, 0.0, 0.0, 0.0, 0.0, 0.0, 0.0, 1.7184699137497046E9, 0.0, 2024-06-15 11:45:13.749
155.0, 35869.587763498756, 36719.57990164517, 56635.92298459089, -187500.02235174447, -70248.828261951, -187500.02235174447, -147822.8372720286, -60472.01877498851, 0.164, 0.9580000000000001, 0.23600000000000002, 192.0, 0.0, 0.0, 0.0, 0.0, 0.0, 0.0, 0.0, 0.0, 0.0, 1.7184699137497137E9, 0.0, 2024-06-15 11:45:13.749
156.0, 35815.63065238365, 36661.62182827256, 56459.143037693866, -187500.02235174447, -72943.04048336035, -187500.02235174447, -148638.51948243612, -62867.164655585846, 0.164, 0.9580000000000001, 0.23600000000000002, 192.0, 0.0, 0.0, 0.0, 0.0, 0.0, 0.0, 0.0, 0.0, 0.0, 1.7184699137497227E9, 0.0, 2024-06-15 11:45:13.749
157.0, 35447.29625550464, 36128.19744684666, 56813.12761463256, -187500.02235174447, -70861.82485363781, -187500.02235174447, -147972.63866336807, -60978.06226945666, 0.152, 0.932, 0.264, 192.0, 4.0, 192.0, 29.0, 32.0, 8.0, 64.0, 0.0, 0.0, 0.0, 1.7184699137497318E9, 0.0, 2024-06-15 11:45:13.749
158.0, 35373.49079531322, 36004.03350639743, 57438.30590704751, -187500.02235174447, -67739.57672590933, -187500.02235174447, -146867.21078958642, -57427.17473830876, 0.152, 0.932, 0.264, 192.0, 0.0, 0.0, 0.0, 0.0, 0.0, 0.0, 0.0, 0.0, 0.0, 1.7184699137497408E9, 0.0, 2024-06-15 11:45:13.749
159.0, 35716.07598257971, 36226.65688117229, 56737.51166314026, -187500.02235174447, -69428.45218520788, -187500.02235174447, -147484.9683028422, -59397.88334344427, 0.152, 0.932, 0.264, 192.0, 0.0, 0.0, 0.0, 0.0, 0.0, 0.0, 0.0, 0.0, 0.0, 1.7184699137497556E9, 0.0, 2024-06-15 11:45:13.749
160.0, 35761.98646569091, 36222.36534623687, 56436.94775544975, -187500.02235174447, -72488.76362905069, -187500.02235174447, -148427.20609035567, -62138.34132413165, 0.152, 0.932, 0.264, 192.0, 0.0, 0.0, 0.0, 0.0, 0.0, 0.0, 0.0, 0.0, 0.0, 1.7184699137497647E9, 0.0, 2024-06-15 11:45:13.749
161.0, 35546.44859390838, 35727.743593185376, 56243.046372299956, -187500.02235174447, -72398.35082272897, -187500.02235174447, -148471.1943234437, -62453.76914188494, 0.152, 0.932, 0.264, 192.0, 0.0, 0.0, 0.0, 0.0, 0.0, 0.0, 0.0, 0.0, 0.0, 1.718469913749774E9, 0.0, 2024-06-15 11:45:13.749
162.0, 35456.86280213151, 35564.508803428274, 56224.941459291156, -187500.02235174447, -71537.40632979946, -187500.02235174447, -148182.20861938104, -61619.691445790704, 0.152, 0.932, 0.264, 192.0, 0.0, 0.0, 0.0, 0.0, 0.0, 0.0, 0.0, 0.0, 0.0, 1.7184699137497828E9, 0.0, 2024-06-15 11:45:13.749
163.0, 35542.0900037396, 35654.51927834979, 56183.32251111538, -187500.02235174447, -71667.38172380706, -187500.02235174447, -148186.74602350546, -61746.448188596754, 0.152, 0.932, 0.264, 192.0, 0.0, 0.0, 0.0, 0.0, 0.0, 0.0, 0.0, 0.0, 0.0, 1.7184699137497919E9, 0.0, 2024-06-15 11:45:13.749
164.0, 35569.20266976389, 35678.92738329499, 56580.222437408265, -187500.02235174447, -72537.46808021881, -187500.02235174447, -148330.49009209755, -61946.49630147175, 0.152, 0.932, 0.264, 192.0, 0.0, 0.0, 0.0, 0.0, 0.0, 0.0, 0.0, 0.0, 0.0, 1.7184699137498007E9, 0.0, 2024-06-15 11:45:13.749
165.0, 35437.752060622224, 35236.765174480104, 56507.95924758426, -187500.02235174447, -72347.70176979325, -187500.02235174447, -148300.58345801634, -61963.88595865798, 0.152, 0.932, 0.264, 192.0, 0.0, 0.0, 0.0, 0.0, 0.0, 0.0, 0.0, 0.0, 0.0, 1.71846991374981E9, 0.0, 2024-06-15 11:45:13.749
166.0, 35344.18765833231, 35069.46236723213, 56361.06358302398, -187500.02235174447, -71561.9932487003, -187500.02235174447, -148063.3420423677, -61413.27308574595, 0.152, 0.932, 0.264, 192.0, 0.0, 0.0, 0.0, 0.0, 0.0, 0.0, 0.0, 0.0, 0.0, 1.7184699137498193E9, 0.0, 2024-06-15 11:45:13.749
167.0, 35442.35651998002, 35262.40262537034, 56275.74697443807, -187500.02235174447, -71558.30521086518, -187500.02235174447, -148046.98056542643, -61420.045664315905, 0.152, 0.932, 0.264, 192.0, 0.0, 0.0, 0.0, 0.0, 0.0, 0.0, 0.0, 0.0, 0.0, 1.718469913749828E9, 0.0, 2024-06-15 11:45:13.749
168.0, 35481.40501754344, 35475.995895385255, 56602.77534756367, -187500.02235174447, -72409.30317751208, -187500.02235174447, -148198.01130271095, -61722.621229007396, 0.122, 0.918, 0.27, 192.0, 3.0, 208.0, 28.0, 176.0, 8.0, 112.0, 0.0, 0.0, 0.0, 1.7184699137498395E9, 0.0, 2024-06-15 11:45:13.749
169.0, 35372.57437379055, 35168.63705738033, 56653.15617956593, -187500.02235174447, -72499.3136524336, -187500.02235174447, -148223.40288441218, -61788.737689106194, 0.122, 0.918, 0.27, 192.0, 0.0, 0.0, 0.0, 0.0, 0.0, 0.0, 0.0, 0.0, 0.0, 1.718469913749849E9, 0.0, 2024-06-15 11:45:13.749
170.0, 35278.89821277836, 35012.80069503793, 56461.109991205936, -187500.02235174447, -71713.31455866272, -187500.02235174447, -148005.40632073957, -61412.91545783466, 0.122, 0.918, 0.27, 192.0, 0.0, 0.0, 0.0, 0.0, 0.0, 0.0, 0.0, 0.0, 0.0, 1.7184699137498584E9, 0.0, 2024-06-15 11:45:13.749
171.0, 35325.501599967676, 35197.6049181944, 56375.189885519736, -187500.02235174447, -71550.92913519492, -187500.02235174447, -147944.3637066321, -61238.773016783365, 0.122, 0.918, 0.27, 192.0, 0.0, 0.0, 0.0, 0.0, 0.0, 0.0, 0.0, 0.0, 0.0, 1.7184699137498677E9, 0.0, 2024-06-15 11:45:13.749
172.0, 35408.538330619136, 35505.65666027745, 56602.75299581922, -187500.02235174447, -72318.53274327908, -187500.02235174447, -148102.63640912014, -61622.06073070297, 0.122, 0.918, 0.27, 192.0, 0.0, 0.0, 0.0, 0.0, 0.0, 0.0, 0.0, 0.0, 0.0, 1.7184699137498977E9, 0.0, 2024-06-15 11:45:13.749
173.0, 35325.16632380084, 35321.45593422126, 56816.81565246769, -187500.02235174447, -72643.43770068142, -187500.02235174447, -148146.7587526749, -61665.1548940128, 0.122, 0.918, 0.27, 192.0, 0.0, 0.0, 0.0, 0.0, 0.0, 0.0, 0.0, 0.0, 0.0, 1.718469913749907E9, 0.0, 2024-06-15 11:45:13.749
174.0, 35204.22103455318, 35094.228100088614, 56569.98533844773, -187500.02235174447, -71947.29261962087, -187500.02235174447, -147991.2353147549, -61497.24858966453, 0.122, 0.918, 0.27, 192.0, 0.0, 0.0, 0.0, 0.0, 0.0, 0.0, 0.0, 0.0, 0.0, 1.7184699137499166E9, 0.0, 2024-06-15 11:45:13.749
175.0, 35274.874898776405, 35304.155684012854, 56553.91443418437, -187500.02235174447, -71603.07575500915, -187500.02235174447, -147834.03549600072, -61115.95018100145, 0.122, 0.918, 0.27, 192.0, 0.0, 0.0, 0.0, 0.0, 0.0, 0.0, 0.0, 0.0, 0.0, 1.718469913749928E9, 0.0, 2024-06-15 11:45:13.749
176.0, 35369.467481311265, 35668.109138978616, 56727.520433368736, -187500.02235174447, -72166.96556412763, -187500.02235174447, -147914.54647952874, -61458.624775245764, 0.122, 0.918, 0.27, 192.0, 0.0, 0.0, 0.0, 0.0, 0.0, 0.0, 0.0, 0.0, 0.0, 1.7184699137499387E9, 0.0, 2024-06-15 11:45:13.749
177.0, 35310.81650386054, 35608.966423149875, 57018.49544268793, -187500.02235174447, -72724.08279467617, -187500.02235174447, -148009.92137311952, -61512.805403805425, 0.122, 0.918, 0.27, 192.0, 0.0, 0.0, 0.0, 0.0, 0.0, 0.0, 0.0, 0.0, 0.0, 1.7184699137499645E9, 0.0, 2024-06-15 11:45:13.749
178.0, 35192.35225824741, 35344.88056241042, 56672.423383286405, -187500.02235174447, -72234.62429459386, -187500.02235174447, -147983.83688734018, -61604.179335138724, 0.13, 0.896, 0.278, 192.0, 4.0, 16.0, 28.0, 0.0, 8.0, 176.0, 0.0, 0.0, 0.0, 1.7184699137499945E9, 0.0, 2024-06-15 11:45:13.749
179.0, 35184.283278499046, 35502.48271256479, 56618.84625182704, -187500.02235174447, -71845.8604032827, -187500.02235174447, -147828.06758023115, -61201.087975631715, 0.13, 0.896, 0.278, 192.0, 0.0, 0.0, 0.0, 0.0, 0.0, 0.0, 0.0, 0.0, 0.0, 1.7184699137500052E9, 0.0, 2024-06-15 11:45:13.750
180.0, 35291.59400362897, 35880.94244968205, 56716.50102335227, -187500.02235174447, -72194.54761678548, -187500.02235174447, -147861.3046242362, -61457.931871167646, 0.13, 0.896, 0.278, 192.0, 0.0, 0.0, 0.0, 0.0, 0.0, 0.0, 0.0, 0.0, 0.0, 1.7184699137500165E9, 0.0, 2024-06-15 11:45:13.750
181.0, 35304.84858809097, 35925.15420021465, 57120.86643229323, -187500.02235174447, -72839.6413135101, -187500.02235174447, -147951.0245264798, -61449.92994665265, 0.13, 0.896, 0.278, 192.0, 0.0, 0.0, 0.0, 0.0, 0.0, 0.0, 0.0, 0.0, 0.0, 1.7184699137500267E9, 0.0, 2024-06-15 11:45:13.750
182.0, 35185.89260409983, 35572.37661747654, 56851.68437381797, -187500.02235174447, -72430.35852078897, -187500.02235174447, -147915.01586616228, -61581.08998311639, 0.13, 0.896, 0.278, 192.0, 0.0, 0.0, 0.0, 0.0, 0.0, 0.0, 0.0, 0.0, 0.0, 1.7184699137500365E9, 0.0, 2024-06-15 11:45:13.750
183.0, 35152.56615311696, 35637.10726941911, 56764.37845997554, -187500.02235174447, -71953.66286679065, -187500.02235174447, -147747.40013449194, -61171.82954213972, 0.13, 0.896, 0.278, 192.0, 0.0, 0.0, 0.0, 0.0, 0.0, 0.0, 0.0, 0.0, 0.0, 1.7184699137500615E9, 0.0, 2024-06-15 11:45:13.750
184.0, 35238.32979659198, 35952.44568019458, 56736.550538128686, -187500.02235174447, -72183.8858346803, -187500.02235174447, -147805.62642879802, -61397.96214079406, 0.13, 0.896, 0.278, 192.0, 0.0, 0.0, 0.0, 0.0, 0.0, 0.0, 0.0, 0.0, 0.0, 1.7184699137500713E9, 0.0, 2024-06-15 11:45:13.750
185.0, 35266.492994605665, 36182.60159285088, 57177.68456669862, -187500.02235174447, -72893.53136939184, -187500.02235174447, -147901.42600553346, -61405.82995484233, 0.13, 0.896, 0.278, 192.0, 0.0, 0.0, 0.0, 0.0, 0.0, 0.0, 0.0, 0.0, 0.0, 1.7184699137500806E9, 0.0, 2024-06-15 11:45:13.750
186.0, 35147.40290014778, 35882.95410668303, 57022.45170145651, -187500.02235174447, -72634.98874127731, -187500.02235174447, -147879.18601980043, -61538.956944818136, 0.13, 0.896, 0.278, 192.0, 0.0, 0.0, 0.0, 0.0, 0.0, 0.0, 0.0, 0.0, 0.0, 1.71846991375009E9, 0.0, 2024-06-15 11:45:13.750
187.0, 35114.992870687594, 35930.38450841719, 56901.48406046439, -187500.02235174447, -72089.9638044791, -187500.02235174447, -147712.3078956971, -61191.096745860195, 0.13, 0.896, 0.278, 192.0, 0.0, 0.0, 0.0, 0.0, 0.0, 0.0, 0.0, 0.0, 0.0, 1.7184699137501004E9, 0.0, 2024-06-15 11:45:13.750
188.0, 35202.76817116358, 36289.15235866933, 56864.49192339086, -187500.02235174447, -72145.7314068951, -187500.02235174447, -147708.01636076169, -61271.74183985494, 0.126, 0.9400000000000001, 0.28400000000000003, 192.0, 3.0, 240.0, 29.0, 96.0, 8.0, 224.0, 0.0, 0.0, 0.0, 1.7184699137501104E9, 0.0, 2024-06-15 11:45:13.750
189.0, 35228.942063920746, 36614.97373759434, 57279.63087315928, -187500.02235174447, -72852.06888342726, -187500.02235174447, -147799.390292095, -61324.35784630274, 0.126, 0.9400000000000001, 0.28400000000000003, 192.0, 0.0, 0.0, 0.0, 0.0, 0.0, 0.0, 0.0, 0.0, 0.0, 1.7184699137501197E9, 0.0, 2024-06-15 11:45:13.750
0.0, 0.0, 0.0, 0.0, 0.0, 0.0, 0.0, 0.0, 0.0, 0.126, 0.9400000000000001, 0.28400000000000003, 192.0, 0.0, 0.0, 0.0, 0.0, 0.0, 0.0, 0.0, 0.0, 0.0, 1.718469913834597E9, 0.0, 2024-06-15 11:45:13.834
1.0, 36546.62210305001, 44336.7638393359, 64783.87144611734, -187500.02235174447, -56098.98937928551, -187500.02235174447, -136226.30521372618, 9503.112376107261, 0.024, 0.9580000000000001, 0.242, 192.0, 0.0, 192.0, 29.0, 240.0, 7.0, 144.0, 0.0, 0.0, 0.0, 1.7184699138937254E9, 0.0, 2024-06-15 11:45:13.893
2.0, 36946.45010786654, 44671.14593638729, 64149.21601405335, -187500.02235174447, -58330.38638000326, -187500.02235174447, -137019.0321825781, 6888.494716703262, 0.024, 0.9580000000000001, 0.242, 192.0, 0.0, 0.0, 0.0, 0.0, 0.0, 0.0, 0.0, 0.0, 0.0, 1.7184699138937435E9, 0.0, 2024-06-15 11:45:13.893
3.0, 36999.22257652552, 44807.066894420015, 64364.2397957134, -187500.02235174447, -60991.272150429744, -187500.02235174447, -137868.57728583543, 4235.767333002965, 0.024, 0.9580000000000001, 0.242, 192.0, 0.0, 0.0, 0.0, 0.0, 0.0, 0.0, 0.0, 0.0, 0.0, 1.7184699138937707E9, 0.0, 2024-06-15 11:45:13.893
4.0, 36665.04164517423, 44396.62181098721, 64326.934734217495, -187500.02235174447, -59617.37747399539, -187500.02235174447, -137438.93205391552, 5724.527624193147, 0.024, 0.9580000000000001, 0.242, 192.0, 0.0, 0.0, 0.0, 0.0, 0.0, 0.0, 0.0, 0.0, 0.0, 1.7184699138938005E9, 0.0, 2024-06-15 11:45:13.893
5.0, 36520.38115505948, 44308.1089029442, 64769.476922688125, -187500.02235174447, -56370.831295350945, -187500.02235174447, -136308.73844727737, 9479.128954306718, 0.024, 0.9580000000000001, 0.242, 192.0, 0.0, 0.0, 0.0, 0.0, 0.0, 0.0, 0.0, 0.0, 0.0, 1.7184699138938117E9, 0.0, 2024-06-15 11:45:13.893
6.0, 36893.54352874083, 44609.70099087965, 64289.741431443865, -187500.02235174447, -57580.97709190573, -187500.02235174447, -136746.9220455792, 8055.322832503657, 0.024, 0.9580000000000001, 0.242, 192.0, 0.0, 0.0, 0.0, 0.0, 0.0, 0.0, 0.0, 0.0, 0.0, 1.7184699138938208E9, 0.0, 2024-06-15 11:45:13.893
7.0, 37045.110707892265, 44857.335967700004, 64406.93162762304, -187500.02235174447, -60613.25944820159, -187500.02235174447, -137724.11796142076, 4961.237902788866, 0.024, 0.9580000000000001, 0.242, 192.0, 0.0, 0.0, 0.0, 0.0, 0.0, 0.0, 0.0, 0.0, 0.0, 1.718469913893846E9, 0.0, 2024-06-15 11:45:13.893
8.0, 36754.98506486238, 44473.31064621337, 64321.52561205931, -187500.02235174447, -60163.34118406072, -187500.02235174447, -137587.7276167545, 5434.580795118904, -0.018000000000000002, 0.968, 0.226, 192.0, 255.0, 112.0, 30.0, 64.0, 7.0, 16.0, 0.0, 0.0, 0.0, 1.7184699138938706E9, 0.0, 2024-06-15 11:45:13.893
9.0, 36504.153788584925, 44280.83977470872, 64579.35298435128, -187500.02235174447, -57111.523403110914, -187500.02235174447, -136556.6863485201, 8880.817458727057, -0.018000000000000002, 0.968, 0.226, 192.0, 0.0, 0.0, 0.0, 0.0, 0.0, 0.0, 0.0, 0.0, 0.0, 1.7184699138938797E9, 0.0, 2024-06-15 11:45:13.893
10.0, 36803.06366718574, 44544.85858021481, 64433.5078517804, -187500.02235174447, -57043.797617411336, -187500.02235174447, -136511.24525204246, 8980.662701208914, -0.018000000000000002, 0.968, 0.226, 192.0, 0.0, 0.0, 0.0, 0.0, 0.0, 0.0, 0.0, 0.0, 0.0, 1.7184699138938885E9, 0.0, 2024-06-15 11:45:13.893
11.0, 37054.2972748634, 44877.676055154334, 64511.090756784775, -187500.02235174447, -59945.56813783266, -187500.02235174447, -137431.46657126743, 6012.105168355128, -0.018000000000000002, 0.968, 0.226, 192.0, 0.0, 0.0, 0.0, 0.0, 0.0, 0.0, 0.0, 0.0, 0.0, 1.718469913893897E9, 0.0, 2024-06-15 11:45:13.893
12.0, 36907.37925855866, 44583.03535974448, 64261.98056483037, -187500.02235174447, -60750.40975217936, -187500.02235174447, -137760.88658104977, 5091.168593307566, -0.018000000000000002, 0.968, 0.226, 192.0, 0.0, 0.0, 0.0, 0.0, 0.0, 0.0, 0.0, 0.0, 0.0, 1.7184699139246864E9, 0.0, 2024-06-15 11:45:13.924
13.0, 36773.40290229356, 44383.16606082512, 63670.285185609486, -187500.02235174447, -59969.59626312212, -187500.02235174447, -137575.83648870428, 5577.788421844056, -0.018000000000000002, 0.968, 0.226, 192.0, 0.0, 0.0, 0.0, 0.0, 0.0, 0.0, 0.0, 0.0, 0.0, 1.7184699139247108E9, 0.0, 2024-06-15 11:45:13.924
14.0, 36832.38915591111, 44582.23069694408, 63729.9419915607, -187500.02235174447, -59620.39495949686, -187500.02235174447, -137428.67260321052, 6079.24980869887, -0.018000000000000002, 0.968, 0.226, 192.0, 0.0, 0.0, 0.0, 0.0, 0.0, 0.0, 0.0, 0.0, 0.0, 1.7184699139498248E9, 0.0, 2024-06-15 11:45:13.949
15.0, 36913.92831968407, 44870.769366117645, 64665.787180159954, -187500.02235174447, -59996.77598437977, -187500.02235174447, -137397.49191969537, 6348.7000881075965, -0.018000000000000002, 0.968, 0.226, 192.0, 0.0, 0.0, 0.0, 0.0, 0.0, 0.0, 0.0, 0.0, 0.0, 1.7184699139498546E9, 0.0, 2024-06-15 11:45:13.949
16.0, 36849.778813097335, 44621.99445033007, 64933.00228512315, -187500.02235174447, -60060.61256654413, -187500.02235174447, -137377.26359096332, 6504.983485339104, -0.018000000000000002, 0.968, 0.226, 192.0, 0.0, 0.0, 0.0, 0.0, 0.0, 0.0, 0.0, 0.0, 0.0, 1.7184699139747877E9, 0.0, 2024-06-15 11:45:13.974
17.0, 36759.83539340918, 44347.49267667445, 64032.38344578546, -187500.02235174447, -59562.70510705771, -187500.02235174447, -137340.65143354554, 6547.652965504285, -0.018000000000000002, 0.968, 0.226, 192.0, 0.0, 0.0, 0.0, 0.0, 0.0, 0.0, 0.0, 0.0, 0.0, 1.7184699139748118E9, 0.0, 2024-06-15 11:45:13.974
18.0, 36798.258042127854, 44504.73719891754, 63878.37992648839, -187500.02235174447, -59235.944954865576, -187500.02235174447, -137245.88003705503, 6899.737644164282, -0.042, 0.964, 0.224, 192.0, 254.0, 176.0, 30.0, 32.0, 7.0, 0.0, 0.0, 0.0, 0.0, 1.7184699141582408E9, 0.0, 2024-06-15 11:45:14.158
19.0, 36908.385087059156, 44843.36612741544, 64617.775633069956, -187500.02235174447, -59590.4659736712, -187500.02235174447, -137233.47481888233, 7097.751748293847, -0.042, 0.964, 0.224, 192.0, 0.0, 0.0, 0.0, 0.0, 0.0, 0.0, 0.0, 0.0, 0.0, 1.7184699141582668E9, 0.0, 2024-06-15 11:45:14.158
20.0, 36880.53481346784, 44710.57441360646, 65156.51972967622, -187500.02235174447, -59831.39542715495, -187500.02235174447, -137253.59138889212, 7257.745535104935, -0.042, 0.964, 0.224, 192.0, 0.0, 0.0, 0.0, 0.0, 0.0, 0.0, 0.0, 0.0, 0.0, 1.7184699141582983E9, 0.0, 2024-06-15 11:45:14.158
21.0, 36784.28820184329, 44372.861906631224, 64202.010834456785, -187500.02235174447, -59491.291283523, -187500.02235174447, -137284.5038514738, 7128.284231219796, -0.042, 0.964, 0.224, 192.0, 0.0, 0.0, 0.0, 0.0, 0.0, 0.0, 0.0, 0.0, 0.0, 1.7184699141583135E9, 0.0, 2024-06-15 11:45:14.158
22.0, 36799.71090551745, 44471.76837584595, 63941.61301155246, -187500.02235174447, -59070.72085985194, -187500.02235174447, -137153.74614641027, 7474.557456321413, -0.042, 0.964, 0.224, 192.0, 0.0, 0.0, 0.0, 0.0, 0.0, 0.0, 0.0, 0.0, 0.0, 1.7184699141583269E9, 0.0, 2024-06-15 11:45:14.158
23.0, 36915.40353481812, 44809.39147584337, 64501.70302411354, -187500.02235174447, -59323.74260708602, -187500.02235174447, -137126.67818387487, 7676.170191308283, -0.042, 0.964, 0.224, 192.0, 0.0, 0.0, 0.0, 0.0, 0.0, 0.0, 0.0, 0.0, 0.0, 1.718469914158356E9, 0.0, 2024-06-15 11:45:14.158
24.0, 36916.49877029643, 44789.878402933886, 65327.197650336944, -187500.02235174447, -59622.36191300892, -187500.02235174447, -137116.64225061444, 7930.689505420864, -0.042, 0.964, 0.224, 192.0, 0.0, 0.0, 0.0, 0.0, 0.0, 0.0, 0.0, 0.0, 0.0, 1.7184699141583903E9, 0.0, 2024-06-15 11:45:14.158
25.0, 36809.165693422045, 44405.160177369144, 64440.14631988363, -187500.02235174447, -59404.94649469215, -187500.02235174447, -137181.41760604593, 7716.470386561202, -0.042, 0.964, 0.224, 192.0, 0.0, 0.0, 0.0, 0.0, 0.0, 0.0, 0.0, 0.0, 0.0, 1.7184699141584048E9, 0.0, 2024-06-15 11:45:14.158
26.0, 36807.824588754724, 44448.61196859026, 63989.51279992018, -187500.02235174447, -59001.69867297396, -187500.02235174447, -137111.4119424119, 7935.875110134496, -0.042, 0.964, 0.224, 192.0, 0.0, 0.0, 0.0, 0.0, 0.0, 0.0, 0.0, 0.0, 0.0, 1.7184699141584344E9, 0.0, 2024-06-15 11:45:14.158
27.0, 36916.23054936297, 44781.63060922988, 64389.586673925725, -187500.02235174447, -59125.79555818982, -187500.02235174447, -137060.76288947617, 8179.397365975066, -0.042, 0.964, 0.224, 192.0, 0.0, 0.0, 0.0, 0.0, 0.0, 0.0, 0.0, 0.0, 0.0, 1.7184699141584487E9, 0.0, 2024-06-15 11:45:14.158
28.0, 36941.711538042015, 44880.22415402224, 65423.84659336169, -187500.02235174447, -59432.28267816099, -187500.02235174447, -137008.86213885096, 8547.329431453876, -0.042, 0.964, 0.224, 192.0, 0.0, 0.0, 0.0, 0.0, 0.0, 0.0, 0.0, 0.0, 0.0, 1.718469914158463E9, 0.0, 2024-06-15 11:45:14.158
29.0, 36836.12189723515, 44469.28733221142, 64699.44890730965, -187500.02235174447, -59336.99719154802, -187500.02235174447, -137101.33130566255, 8318.000533342425, -0.084, 0.9580000000000001, 0.23800000000000002, 192.0, 253.0, 96.0, 29.0, 240.0, 7.0, 112.0, 0.0, 0.0, 0.0, 1.7184699141585004E9, 0.0, 2024-06-15 11:45:14.158
30.0, 36805.85763524266, 44427.13194216871, 64081.8255045206, -187500.02235174447, -58906.99433171682, -187500.02235174447, -137031.25858679516, 8432.95555507607, -0.084, 0.9580000000000001, 0.23800000000000002, 192.0, 0.0, 0.0, 0.0, 0.0, 0.0, 0.0, 0.0, 0.0, 0.0, 1.7184699141585371E9, 0.0, 2024-06-15 11:45:14.158
31.0, 36898.237395076445, 44719.58216662195, 64299.10681237064, -187500.02235174447, -58915.13036669855, -187500.02235174447, -136976.94384776877, 8662.485618887618, -0.084, 0.9580000000000001, 0.23800000000000002, 192.0, 0.0, 0.0, 0.0, 0.0, 0.0, 0.0, 0.0, 0.0, 0.0, 1.718469914158554E9, 0.0, 2024-06-15 11:45:14.158
32.0, 36956.955427760535, 44915.294041072615, 65385.80392429876, -187500.02235174447, -59248.70780094955, -187500.02235174447, -136940.4658008177, 9048.07556248612, -0.084, 0.9580000000000001, 0.23800000000000002, 192.0, 0.0, 0.0, 0.0, 0.0, 0.0, 0.0, 0.0, 0.0, 0.0, 1.718469914158588E9, 0.0, 2024-06-15 11:45:14.158
33.0, 36874.321028509265, 44543.62923426977, 64952.85063419946, -187500.02235174447, -59229.41824548462, -187500.02235174447, -137015.90293835438, 8954.757029385213, -0.084, 0.9580000000000001, 0.23800000000000002, 192.0, 0.0, 0.0, 0.0, 0.0, 0.0, 0.0, 0.0, 0.0, 0.0, 1.7184699141586034E9, 0.0, 2024-06-15 11:45:14.158
34.0, 36829.5951878542, 44425.81318924585, 64140.52118546024, -187500.02235174447, -58833.6359064145, -187500.02235174447, -136993.3276764545, 8978.136954085465, -0.084, 0.9580000000000001, 0.23800000000000002, 192.0, 0.0, 0.0, 0.0, 0.0, 0.0, 0.0, 0.0, 0.0, 0.0, 1.7184699141586192E9, 0.0, 2024-06-15 11:45:14.158
35.0, 36887.15092982661, 44666.65323575178, 64211.33151189465, -187500.02235174447, -58717.11626256898, -187500.02235174447, -136918.20346334024, 9273.761126251356, -0.084, 0.9580000000000001, 0.23800000000000002, 192.0, 0.0, 0.0, 0.0, 0.0, 0.0, 0.0, 0.0, 0.0, 0.0, 1.718469914158656E9, 0.0, 2024-06-15 11:45:14.158
36.0, 36962.65512259664, 44935.87999771595, 65268.50196939731, -187500.02235174447, -59025.39152209658, -187500.02235174447, -136877.27741924257, 9695.270323189536, -0.084, 0.9580000000000001, 0.23800000000000002, 192.0, 0.0, 0.0, 0.0, 0.0, 0.0, 0.0, 0.0, 0.0, 0.0, 1.7184699141586728E9, 0.0, 2024-06-15 11:45:14.158
37.0, 36884.69223793653, 44609.790397857476, 65190.9861196263, -187500.02235174447, -59077.694604122, -187500.02235174447, -136926.40655355534, 9720.751311868586, -0.084, 0.9580000000000001, 0.23800000000000002, 192.0, 0.0, 0.0, 0.0, 0.0, 0.0, 0.0, 0.0, 0.0, 0.0, 1.7184699141586878E9, 0.0, 2024-06-15 11:45:14.158
38.0, 36790.47963505741, 44365.038796071865, 64210.32568339416, -187500.02235174447, -58744.81007394911, -187500.02235174447, -136951.88754223438, 9599.42604296518, -0.084, 0.9580000000000001, 0.23800000000000002, 192.0, 0.0, 0.0, 0.0, 0.0, 0.0, 0.0, 0.0, 0.0, 0.0, 1.7184699141587195E9, 0.0, 2024-06-15 11:45:14.158
39.0, 36852.05869103178, 44580.12963296528, 64164.28108981623, -187500.02235174447, -58503.90297220981, -187500.02235174447, -136838.87712226834, 9928.555480069575, -0.112, 0.9440000000000001, 0.25, 192.0, 252.0, 128.0, 29.0, 128.0, 7.0, 208.0, 0.0, 0.0, 0.0, 1.718469914158753E9, 0.0, 2024-06-15 11:45:14.158
40.0, 36976.91553555912, 44938.65161402841, 65164.119322791026, -187500.02235174447, -58701.22417226126, -187500.02235174447, -136737.780182097, 10409.34150330323, -0.112, 0.9440000000000001, 0.25, 192.0, 0.0, 0.0, 0.0, 0.0, 0.0, 0.0, 0.0, 0.0, 0.0, 1.7184699141587737E9, 0.0, 2024-06-15 11:45:14.158
41.0, 36942.203276420034, 44725.505378902606, 65463.96797465897, -187500.02235174447, -58806.81381306813, -187500.02235174447, -136754.52163869402, 10574.677357039138, -0.112, 0.9440000000000001, 0.25, 192.0, 0.0, 0.0, 0.0, 0.0, 0.0, 0.0, 0.0, 0.0, 0.0, 1.718469914158811E9, 0.0, 2024-06-15 11:45:14.158
42.0, 36851.90222882059, 44420.202901387565, 64383.283481989325, -187500.02235174447, -58561.88339732688, -187500.02235174447, -136841.31346241396, 10297.828650215704, -0.112, 0.9440000000000001, 0.25, 192.0, 0.0, 0.0, 0.0, 0.0, 0.0, 0.0, 0.0, 0.0, 0.0, 1.718469914158828E9, 0.0, 2024-06-15 11:45:14.158
43.0, 36903.08772362325, 44602.25785997604, 64183.52594179225, -187500.02235174447, -58280.96667301258, -187500.02235174447, -136758.94728409615, 10556.863016708257, -0.112, 0.9440000000000001, 0.25, 192.0, 0.0, 0.0, 0.0, 0.0, 0.0, 0.0, 0.0, 0.0, 0.0, 1.7184699141588583E9, 0.0, 2024-06-15 11:45:14.158
44.0, 37007.51507371844, 44957.42707937087, 64992.34616665199, -187500.02235174447, -58442.90506159128, -187500.02235174447, -136686.23705938304, 10978.327510157527, -0.112, 0.9440000000000001, 0.25, 192.0, 0.0, 0.0, 0.0, 0.0, 0.0, 0.0, 0.0, 0.0, 0.0, 1.7184699141588678E9, 0.0, 2024-06-15 11:45:14.158
45.0, 36980.62592513871, 44834.51483661114, 65635.76348254246, -187500.02235174447, -58601.91537164633, -187500.02235174447, -136677.18460287864, 11280.992481826841, -0.112, 0.9440000000000001, 0.25, 192.0, 0.0, 0.0, 0.0, 0.0, 0.0, 0.0, 0.0, 0.0, 0.0, 1.718469914158893E9, 0.0, 2024-06-15 11:45:14.158
46.0, 36875.304505265296, 44454.15520121517, 64562.72328647653, -187500.02235174447, -58423.66020961526, -187500.02235174447, -136786.35052279837, 10943.45878880725, -0.112, 0.9440000000000001, 0.25, 192.0, 0.0, 0.0, 0.0, 0.0, 0.0, 0.0, 0.0, 0.0, 0.0, 1.7184699141589022E9, 0.0, 2024-06-15 11:45:14.158
47.0, 36896.33749679774, 44559.63308329977, 64180.70962199088, -187500.02235174447, -58102.39858655913, -187500.02235174447, -136718.4682748876, 11126.430168918392, -0.112, 0.9440000000000001, 0.25, 192.0, 0.0, 0.0, 0.0, 0.0, 0.0, 0.0, 0.0, 0.0, 0.0, 1.71846991415894E9, 0.0, 2024-06-15 11:45:14.158
48.0, 37011.09135283129, 44920.36788706397, 64798.95887362467, -187500.02235174447, -58162.56948263282, -187500.02235174447, -136627.2955092544, 11536.584679673277, -0.112, 0.9440000000000001, 0.25, 192.0, 0.0, 0.0, 0.0, 0.0, 0.0, 0.0, 0.0, 0.0, 0.0, 1.7184699141589541E9, 0.0, 2024-06-15 11:45:14.158
49.0, 36998.26145151394, 44902.17356707735, 65716.05094862593, -187500.02235174447, -58342.45632200913, -187500.02235174447, -136588.1352529687, 11959.524388256597, -0.106, 0.9460000000000001, 0.258, 192.0, 252.0, 176.0, 29.0, 144.0, 8.0, 16.0, 0.0, 0.0, 0.0, 1.7184699141589816E9, 0.0, 2024-06-15 11:45:14.158
50.0, 36897.2092148315, 44485.71586438607, 64774.93074833522, -187500.02235174447, -58214.9396198916, -187500.02235174447, -136693.07669318636, 11629.009142995972, -0.106, 0.9460000000000001, 0.258, 192.0, 0.0, 0.0, 0.0, 0.0, 0.0, 0.0, 0.0, 0.0, 0.0, 1.7184699141589906E9, 0.0, 2024-06-15 11:45:14.158
51.0, 36872.801109886306, 44494.20952727908, 64197.89811347701, -187500.02235174447, -57892.135726468056, -187500.02235174447, -136660.7113672151, 11658.468742188066, -0.106, 0.9460000000000001, 0.258, 192.0, 0.0, 0.0, 0.0, 0.0, 0.0, 0.0, 0.0, 0.0, 0.0, 1.7184699141589997E9, 0.0, 2024-06-15 11:45:14.158
52.0, 36971.39465467866, 44838.22522619072, 64618.84851680381, -187500.02235174447, -57864.88894997704, -187500.02235174447, -136563.59303755677, 11988.581656048496, -0.106, 0.9460000000000001, 0.258, 192.0, 0.0, 0.0, 0.0, 0.0, 0.0, 0.0, 0.0, 0.0, 0.0, 1.7184699141590376E9, 0.0, 2024-06-15 11:45:14.159
53.0, 37027.1399053502, 44980.24821045974, 65751.9702019656, -187500.02235174447, -58022.35698966467, -187500.02235174447, -136463.12194623018, 12487.986682413422, -0.106, 0.9460000000000001, 0.258, 192.0, 0.0, 0.0, 0.0, 0.0, 0.0, 0.0, 0.0, 0.0, 0.0, 1.7184699141590471E9, 0.0, 2024-06-15 11:45:14.159
54.0, 36952.753299802935, 44587.550412124445, 65034.0992252945, -187500.02235174447, -57977.005300164856, -187500.02235174447, -136578.97103774204, 12154.900986540437, -0.106, 0.9460000000000001, 0.258, 192.0, 0.0, 0.0, 0.0, 0.0, 0.0, 0.0, 0.0, 0.0, 0.0, 1.718469914159072E9, 0.0, 2024-06-15 11:45:14.159
55.0, 36916.38701157415, 44524.630251482755, 64256.14675952754, -187500.02235174447, -57684.68918617835, -187500.02235174447, -136598.30529669588, 12004.361987633943, -0.106, 0.9460000000000001, 0.258, 192.0, 0.0, 0.0, 0.0, 0.0, 0.0, 0.0, 0.0, 0.0, 0.0, 1.7184699141590807E9, 0.0, 2024-06-15 11:45:14.159
56.0, 36986.75030311946, 44809.659696776835, 64490.594207119255, -187500.02235174447, -57576.39498429239, -187500.02235174447, -136508.85361538574, 12276.069793232655, -0.106, 0.9460000000000001, 0.258, 192.0, 0.0, 0.0, 0.0, 0.0, 0.0, 0.0, 0.0, 0.0, 0.0, 1.71846991415909E9, 0.0, 2024-06-15 11:45:14.159
57.0, 37051.548010295395, 45031.6795744514, 65660.84213982131, -187500.02235174447, -57752.325564900115, -187500.02235174447, -136426.91212021257, 12730.793682431422, -0.106, 0.9460000000000001, 0.258, 192.0, 0.0, 0.0, 0.0, 0.0, 0.0, 0.0, 0.0, 0.0, 0.0, 1.7184699141590989E9, 0.0, 2024-06-15 11:45:14.159
58.0, 36968.19835522155, 44657.466668780646, 65292.597149920126, -187500.02235174447, -57727.783349488185, -187500.02235174447, -136491.24044075495, 12495.42981331704, -0.106, 0.9460000000000001, 0.258, 192.0, 0.0, 0.0, 0.0, 0.0, 0.0, 0.0, 0.0, 0.0, 0.0, 1.7184699141591077E9, 0.0, 2024-06-15 11:45:14.159
59.0, 36912.92249118358, 44498.38930349223, 64328.72287377392, -187500.02235174447, -57459.540064280045, -187500.02235174447, -136546.04691815938, 12151.324707427586, -0.126, 0.9460000000000001, 0.242, 192.0, 252.0, 16.0, 29.0, 144.0, 7.0, 144.0, 0.0, 0.0, 0.0, 1.7184699141591167E9, 0.0, 2024-06-15 11:45:14.159
60.0, 36967.1254714877, 44743.744402378135, 64359.88120554462, -187500.02235174447, -57310.72214969661, -187500.02235174447, -136489.16172852062, 12292.140697496021, -0.126, 0.9460000000000001, 0.242, 192.0, 0.0, 0.0, 0.0, 0.0, 0.0, 0.0, 0.0, 0.0, 0.0, 1.7184699141591256E9, 0.0, 2024-06-15 11:45:14.159
61.0, 37060.37694935524, 45052.310234583645, 65489.314852871285, -187500.02235174447, -57468.72663125118, -187500.02235174447, -136402.191090845, 12720.958914871087, -0.126, 0.9460000000000001, 0.242, 192.0, 0.0, 0.0, 0.0, 0.0, 0.0, 0.0, 0.0, 0.0, 0.0, 1.7184699141591349E9, 0.0, 2024-06-15 11:45:14.159
62.0, 36985.65506764115, 44736.36832670788, 65492.68996628404, -187500.02235174447, -57510.39028291587, -187500.02235174447, -136450.9625972465, 12629.473224815516, -0.126, 0.9460000000000001, 0.242, 192.0, 0.0, 0.0, 0.0, 0.0, 0.0, 0.0, 0.0, 0.0, 0.0, 1.7184699141591437E9, 0.0, 2024-06-15 11:45:14.159
63.0, 36898.77383694337, 44474.36117820277, 64401.187229298026, -187500.02235174447, -57276.52398067999, -187500.02235174447, -136533.88756917568, 12133.040980463145, -0.126, 0.9460000000000001, 0.242, 192.0, 0.0, 0.0, 0.0, 0.0, 0.0, 0.0, 0.0, 0.0, 0.0, 1.7184699141591525E9, 0.0, 2024-06-15 11:45:14.159
64.0, 36954.04970098135, 44683.797023749, 64259.74539038484, -187500.02235174447, -57096.368920370216, -187500.02235174447, -136495.64373441265, 12121.373369857476, -0.126, 0.9460000000000001, 0.242, 192.0, 0.0, 0.0, 0.0, 0.0, 0.0, 0.0, 0.0, 0.0, 0.0, 1.7184699141591616E9, 0.0, 2024-06-15 11:45:14.159
65.0, 37040.28273108992, 45024.39290575897, 65270.46892290937, -187500.02235174447, -57219.43762534114, -187500.02235174447, -136402.9063466676, 12445.406609226062, -0.126, 0.9460000000000001, 0.242, 192.0, 0.0, 0.0, 0.0, 0.0, 0.0, 0.0, 0.0, 0.0, 0.0, 1.7184699141591709E9, 0.0, 2024-06-15 11:45:14.159
66.0, 36999.110817803245, 44823.853054505955, 65688.37948899025, -187500.02235174447, -57280.81551561541, -187500.02235174447, -136403.1075123677, 12487.159667868575, -0.126, 0.9460000000000001, 0.242, 192.0, 0.0, 0.0, 0.0, 0.0, 0.0, 0.0, 0.0, 0.0, 0.0, 1.71846991415918E9, 0.0, 2024-06-15 11:45:14.159
67.0, 36925.95355820102, 44508.78286466395, 64523.6300854242, -187500.02235174447, -57119.368865414726, -187500.02235174447, -136544.5717030253, 11880.801544285005, -0.126, 0.9460000000000001, 0.242, 192.0, 0.0, 0.0, 0.0, 0.0, 0.0, 0.0, 0.0, 0.0, 0.0, 1.7184699141591892E9, 0.0, 2024-06-15 11:45:14.159
68.0, 36943.20910492052, 44651.096421610884, 64206.16825892547, -187500.02235174447, -56905.66383667754, -187500.02235174447, -136523.44930451506, 11804.425633481222, -0.126, 0.9460000000000001, 0.242, 192.0, 0.0, 0.0, 0.0, 0.0, 0.0, 0.0, 0.0, 0.0, 0.0, 1.7184699142052765E9, 0.0, 2024-06-15 11:45:14.205
69.0, 37036.795858954894, 45010.356010241034, 65035.596792173004, -187500.02235174447, -56968.069907196754, -187500.02235174447, -136431.40482084808, 12096.272360834166, -0.126, 0.9460000000000001, 0.242, 192.0, 0.0, 0.0, 0.0, 0.0, 0.0, 0.0, 0.0, 0.0, 0.0, 1.718469914205295E9, 0.0, 2024-06-15 11:45:14.205
70.0, 37017.59571046778, 44923.56418652108, 65817.23729577509, -187500.02235174447, -57036.28743127435, -187500.02235174447, -136378.40883474456, 12324.170747300477, -0.098, 0.9480000000000001, 0.24, 192.0, 252.0, 240.0, 29.0, 160.0, 7.0, 128.0, 0.0, 0.0, 0.0, 1.7184699142053225E9, 0.0, 2024-06-15 11:45:14.205
71.0, 36919.24803486443, 44533.36978356478, 64698.39837532025, -187500.02235174447, -56919.16429032854, -187500.02235174447, -136528.2325778285, 11709.721292224085, -0.098, 0.9480000000000001, 0.24, 192.0, 0.0, 0.0, 0.0, 0.0, 0.0, 0.0, 0.0, 0.0, 0.0, 1.718469914205332E9, 0.0, 2024-06-15 11:45:14.205
72.0, 36918.62218601968, 44611.84675834737, 64183.52594179225, -187500.02235174447, -56685.65561600395, -187500.02235174447, -136523.49400800397, 11542.977278587494, -0.098, 0.9480000000000001, 0.24, 192.0, 0.0, 0.0, 0.0, 0.0, 0.0, 0.0, 0.0, 0.0, 0.0, 1.718469914205341E9, 0.0, 2024-06-15 11:45:14.205
73.0, 37011.560739464854, 44958.790535782646, 64781.3904024828, -187500.02235174447, -56695.73625275329, -187500.02235174447, -136441.39605061963, 11775.860104067338, -0.098, 0.9480000000000001, 0.24, 192.0, 0.0, 0.0, 0.0, 0.0, 0.0, 0.0, 0.0, 0.0, 0.0, 1.7184699142053509E9, 0.0, 2024-06-15 11:45:14.205
74.0, 37027.29636756139, 44991.58054489858, 65810.53177243851, -187500.02235174447, -56789.9041521435, -187500.02235174447, -136359.20868625745, 12132.951573485325, -0.098, 0.9480000000000001, 0.24, 192.0, 0.0, 0.0, 0.0, 0.0, 0.0, 0.0, 0.0, 0.0, 0.0, 1.7184699142053597E9, 0.0, 2024-06-15 11:45:14.205
75.0, 36931.653253037126, 44569.33374039337, 64839.12495841086, -187500.02235174447, -56697.524392309715, -187500.02235174447, -136482.34444646174, 11600.778889748919, -0.098, 0.9480000000000001, 0.24, 192.0, 0.0, 0.0, 0.0, 0.0, 0.0, 0.0, 0.0, 0.0, 0.0, 1.7184699142053688E9, 0.0, 2024-06-15 11:45:14.205
76.0, 36919.5162557979, 44568.126746192786, 64052.67882975088, -187500.02235174447, -56503.175974270824, -187500.02235174447, -136540.8389617013, 11274.599882912622, -0.098, 0.9480000000000001, 0.24, 192.0, 0.0, 0.0, 0.0, 0.0, 0.0, 0.0, 0.0, 0.0, 0.0, 1.718469914205378E9, 0.0, 2024-06-15 11:45:14.205
77.0, 37005.4363614841, 44895.848023396495, 64422.62255223067, -187500.02235174447, -56464.865084274425, -187500.02235174447, -136467.88286779917, 11424.267163785358, -0.098, 0.9480000000000001, 0.24, 192.0, 0.0, 0.0, 0.0, 0.0, 0.0, 0.0, 0.0, 0.0, 0.0, 1.7184699142212765E9, 0.0, 2024-06-15 11:45:14.221
78.0, 37048.73169049402, 45040.66497572243, 65609.99192118549, -187500.02235174447, -56585.67626305536, -187500.02235174447, -136376.0395498323, 11824.318686046445, -0.098, 0.9480000000000001, 0.24, 192.0, 0.0, 0.0, 0.0, 0.0, 0.0, 0.0, 0.0, 0.0, 0.0, 1.7184699142373123E9, 0.0, 2024-06-15 11:45:14.237
79.0, 36963.14686097466, 44634.332613269406, 64904.101479542434, -187500.02235174447, -56586.61503632248, -187500.02235174447, -136526.8691214167, 11353.881520495597, -0.098, 0.9480000000000001, 0.24, 192.0, 0.0, 0.0, 0.0, 0.0, 0.0, 0.0, 0.0, 0.0, 0.0, 1.718469914253301E9, 0.0, 2024-06-15 11:45:14.253
80.0, 36915.224720862476, 44538.93536793415, 63976.86171255848, -187500.02235174447, -56376.82156286497, -187500.02235174447, -136586.32476166784, 10953.002983689665, -0.074, 0.964, 0.242, 192.0, 253.0, 176.0, 30.0, 32.0, 7.0, 144.0, 0.0, 0.0, 0.0, 1.7184699144657829E9, 0.0, 2024-06-15 11:45:14.465
81.0, 36980.313000716334, 44820.90262423785, 64149.79715940919, -187500.02235174447, -56295.975303170126, -187500.02235174447, -136525.59507198277, 11058.682031474356, -0.074, 0.964, 0.242, 192.0, 0.0, 0.0, 0.0, 0.0, 0.0, 0.0, 0.0, 0.0, 0.0, 1.718469914465805E9, 0.0, 2024-06-15 11:45:14.465
82.0, 37054.14081265221, 45072.15858365996, 65396.689223848494, -187500.02235174447, -56420.56392676401, -187500.02235174447, -136418.7537334864, 11513.56238288431, -0.074, 0.964, 0.242, 192.0, 0.0, 0.0, 0.0, 0.0, 0.0, 0.0, 0.0, 0.0, 0.0, 1.718469914465816E9, 0.0, 2024-06-15 11:45:14.465
83.0, 36969.405349422144, 44699.957334990184, 65066.41984777687, -187500.02235174447, -56446.000211954146, -187500.02235174447, -136515.3132695333, 11241.116969718572, -0.074, 0.964, 0.242, 192.0, 0.0, 0.0, 0.0, 0.0, 0.0, 0.0, 0.0, 0.0, 0.0, 1.7184699144658315E9, 0.0, 2024-06-15 11:45:14.465
84.0, 36897.79036018734, 44507.19589080762, 63929.83364222451, -187500.02235174447, -56290.49912577857, -187500.02235174447, -136632.9505006016, 10713.21346917313, -0.074, 0.964, 0.242, 192.0, 0.0, 0.0, 0.0, 0.0, 0.0, 0.0, 0.0, 0.0, 0.0, 1.7184699144658484E9, 0.0, 2024-06-15 11:45:14.465
85.0, 36960.48700338447, 44763.48099273217, 63902.31864480003, -187500.02235174447, -56176.68404301215, -187500.02235174447, -136588.47052913555, 10753.446609192682, -0.074, 0.964, 0.242, 192.0, 0.0, 0.0, 0.0, 0.0, 0.0, 0.0, 0.0, 0.0, 0.0, 1.718469914465874E9, 0.0, 2024-06-15 11:45:14.465
86.0, 37056.152469653185, 45092.05163622518, 65109.581066320075, -187500.02235174447, -56263.78879115448, -187500.02235174447, -136457.82458279427, 11220.106329930584, -0.074, 0.964, 0.242, 192.0, 0.0, 0.0, 0.0, 0.0, 0.0, 0.0, 0.0, 0.0, 0.0, 1.718469914465917E9, 0.0, 2024-06-15 11:45:14.465
87.0, 37001.32364050432, 44810.24084213267, 65200.887942420006, -187500.02235174447, -56323.646762805794, -187500.02235174447, -136513.59218521026, 11144.892709838476, -0.074, 0.964, 0.242, 192.0, 0.0, 0.0, 0.0, 0.0, 0.0, 0.0, 0.0, 0.0, 0.0, 1.7184699144659264E9, 0.0, 2024-06-15 11:45:14.465
88.0, 36925.774744245384, 44530.017021896485, 63972.05608750059, -187500.02235174447, -56191.43619435265, -187500.02235174447, -136651.65891071068, 10561.109848154765, -0.074, 0.964, 0.242, 192.0, 0.0, 0.0, 0.0, 0.0, 0.0, 0.0, 0.0, 0.0, 0.0, 1.7184699144659352E9, 0.0, 2024-06-15 11:45:14.465
89.0, 36948.68528231207, 44711.580242106946, 63786.558960266, -187500.02235174447, -55998.3171222588, -187500.02235174447, -136580.75917729846, 10587.9989967345, -0.074, 0.964, 0.242, 192.0, 0.0, 0.0, 0.0, 0.0, 0.0, 0.0, 0.0, 0.0, 0.0, 1.7184699144659443E9, 0.0, 2024-06-15 11:45:14.465
90.0, 37051.19038238411, 45074.70668252787, 64863.55541510051, -187500.02235174447, -56035.89040468817, -187500.02235174447, -136435.07050693876, 11039.101903331508, -0.058, 0.9560000000000001, 0.252, 192.0, 254.0, 48.0, 29.0, 224.0, 7.0, 224.0, 0.0, 0.0, 0.0, 1.7184699144659534E9, 0.0, 2024-06-15 11:45:14.465
91.0, 37014.53352147741, 44888.53900295961, 65364.56976706622, -187500.02235174447, -56116.33433298282, -187500.02235174447, -136438.78089651835, 11168.607910705556, -0.058, 0.9560000000000001, 0.252, 192.0, 0.0, 0.0, 0.0, 0.0, 0.0, 0.0, 0.0, 0.0, 0.0, 1.7184699144659622E9, 0.0, 2024-06-15 11:45:14.465
92.0, 36928.50165706893, 44532.00632715301, 64112.76031884675, -187500.02235174447, -56019.03718936887, -187500.02235174447, -136599.86991880776, 10562.965042944556, -0.058, 0.9560000000000001, 0.252, 192.0, 0.0, 0.0, 0.0, 0.0, 0.0, 0.0, 0.0, 0.0, 0.0, 1.7184699144659715E9, 0.0, 2024-06-15 11:45:14.465
93.0, 36946.49481135545, 44656.46084028016, 63674.487313567086, -187500.02235174447, -55866.26301601685, -187500.02235174447, -136610.30818346838, 10467.254873186932, -0.058, 0.9560000000000001, 0.252, 192.0, 0.0, 0.0, 0.0, 0.0, 0.0, 0.0, 0.0, 0.0, 0.0, 1.7184699144659808E9, 0.0, 2024-06-15 11:45:14.465
94.0, 37036.6393967437, 45020.57075745711, 64533.12957681771, -187500.02235174447, -55891.78870818481, -187500.02235174447, -136497.61068792472, 10849.737924306146, -0.058, 0.9560000000000001, 0.252, 192.0, 0.0, 0.0, 0.0, 0.0, 0.0, 0.0, 0.0, 0.0, 0.0, 1.7184699144659898E9, 0.0, 2024-06-15 11:45:14.465
95.0, 37039.165143867154, 44969.31820742109, 65405.54051465279, -187500.02235174447, -55978.424069693574, -187500.02235174447, -136444.704108799, 11178.912064899454, -0.058, 0.9560000000000001, 0.252, 192.0, 0.0, 0.0, 0.0, 0.0, 0.0, 0.0, 0.0, 0.0, 0.0, 1.718469914465999E9, 0.0, 2024-06-15 11:45:14.465
96.0, 36945.712500299516, 44566.651531058735, 64236.56663138469, -187500.02235174447, -55921.22595563245, -187500.02235174447, -136614.93499457062, 10606.170964976665, -0.058, 0.9560000000000001, 0.252, 192.0, 0.0, 0.0, 0.0, 0.0, 0.0, 0.0, 0.0, 0.0, 0.0, 1.718469914466008E9, 0.0, 2024-06-15 11:45:14.466
97.0, 36939.07403219629, 44611.55618566945, 63562.52742559045, -187500.02235174447, -55770.84341893714, -187500.02235174447, -136657.93975090265, 10411.286105070843, -0.058, 0.9560000000000001, 0.252, 192.0, 0.0, 0.0, 0.0, 0.0, 0.0, 0.0, 0.0, 0.0, 0.0, 1.718469914466017E9, 0.0, 2024-06-15 11:45:14.466
98.0, 37024.837675671304, 44965.138431207946, 64196.691119276424, -187500.02235174447, -55745.004802346804, -187500.02235174447, -136542.0906593908, 10736.973373529121, -0.058, 0.9560000000000001, 0.252, 192.0, 0.0, 0.0, 0.0, 0.0, 0.0, 0.0, 0.0, 0.0, 0.0, 1.7184699144660258E9, 0.0, 2024-06-15 11:45:14.466
99.0, 37046.87649570424, 45031.25489130675, 65361.26170888683, -187500.02235174447, -55813.13291944658, -187500.02235174447, -136418.08318115273, 11225.180175921938, -0.058, 0.9560000000000001, 0.252, 192.0, 0.0, 0.0, 0.0, 0.0, 0.0, 0.0, 0.0, 0.0, 0.0, 1.718469914466035E9, 0.0, 2024-06-15 11:45:14.466
100.0, 36960.19643070656, 44610.5280054245, 64408.76447066838, -187500.02235174447, -55780.78994521975, -187500.02235174447, -136566.8340405028, 10751.03262079151, -0.052000000000000005, 0.96, 0.246, 192.0, 254.0, 96.0, 30.0, 0.0, 7.0, 176.0, 0.0, 0.0, 0.0, 1.7184699144660437E9, 0.0, 2024-06-15 11:45:14.466
101.0, 36929.39572684714, 44576.1733741967, 63561.67805930115, -187500.02235174447, -55600.165498276416, -187500.02235174447, -136608.5423956564, 10485.60565538474, -0.052000000000000005, 0.96, 0.246, 192.0, 0.0, 0.0, 0.0, 0.0, 0.0, 0.0, 0.0, 0.0, 0.0, 1.7184699144660528E9, 0.0, 2024-06-15 11:45:14.466
102.0, 37011.09135283129, 44897.30088678609, 63955.94047974831, -187500.02235174447, -55545.22491040527, -187500.02235174447, -136517.83901665677, 10735.341696183885, -0.052000000000000005, 0.96, 0.246, 192.0, 0.0, 0.0, 0.0, 0.0, 0.0, 0.0, 0.0, 0.0, 0.0, 1.7184699144660616E9, 0.0, 2024-06-15 11:45:14.466
103.0, 37065.584905813324, 45074.93019997242, 65238.93061148294, -187500.02235174447, -55676.5414090802, -187500.02235174447, -136423.44759982202, 11248.224824455361, -0.052000000000000005, 0.96, 0.246, 192.0, 0.0, 0.0, 0.0, 0.0, 0.0, 0.0, 0.0, 0.0, 0.0, 1.718469914466071E9, 0.0, 2024-06-15 11:45:14.466
104.0, 36969.71827384452, 44658.04781413649, 64638.33923796884, -187500.02235174447, -55657.207150126356, -187500.02235174447, -136518.6213277127, 10942.184739373295, -0.052000000000000005, 0.96, 0.246, 192.0, 0.0, 0.0, 0.0, 0.0, 0.0, 0.0, 0.0, 0.0, 0.0, 1.71846991446608E9, 0.0, 2024-06-15 11:45:14.466
109.0, 36932.97200595999, 44519.04231536893, 63636.06466484841, -187500.02235174447, -55446.54195863509, -187500.02235174447, -136633.62105293525, 10635.049418812921, -0.052000000000000005, 0.96, 0.246, 192.0, 0.0, 0.0, 0.0, 0.0, 0.0, 0.0, 0.0, 0.0, 0.0, 1.718469914466089E9, 0.0, 2024-06-15 11:45:14.466
106.0, 37000.20605328155, 44829.19512143077, 63704.34924415938, -187500.02235174447, -55477.812049128064, -187500.02235174447, -136594.34903792728, 10676.914236177712, -0.052000000000000005, 0.96, 0.246, 192.0, 0.0, 0.0, 0.0, 0.0, 0.0, 0.0, 0.0, 0.0, 0.0, 1.7184699144661021E9, 0.0, 2024-06-15 11:45:14.466
107.0, 37063.90852497918, 45093.012761236765, 65064.698763453816, -187500.02235174447, -55555.350250643525, -187500.02235174447, -136438.11034418468, 11258.707792604899, -0.052000000000000005, 0.96, 0.246, 192.0, 0.0, 0.0, 0.0, 0.0, 0.0, 0.0, 0.0, 0.0, 0.0, 1.7184699144661112E9, 0.0, 2024-06-15 11:45:14.466
110.0, 36983.06226528434, 44756.19432403974, 63580.386469410245, -187500.02235174447, -55322.89210830833, -187500.02235174447, -136575.2829999069, 10741.756646842558, -0.07, 0.9580000000000001, 0.246, 192.0, 253.0, 208.0, 29.0, 240.0, 7.0, 176.0, 0.0, 0.0, 0.0, 1.71846991446612E9, 0.0, 2024-06-15 11:45:14.466
111.0, 37071.396359371705, 45092.364560647555, 64839.795510744516, -187500.02235174447, -55395.87055395491, -187500.02235174447, -136431.02484119235, 11280.724260893378, -0.07, 0.9580000000000001, 0.246, 192.0, 0.0, 0.0, 0.0, 0.0, 0.0, 0.0, 0.0, 0.0, 0.0, 1.7184699144661293E9, 0.0, 2024-06-15 11:45:14.466
112.0, 37014.68998368859, 44818.48863583668, 65070.130237356454, -187500.02235174447, -55429.46522587124, -187500.02235174447, -136437.59625406223, 11347.600680303656, -0.07, 0.9580000000000001, 0.246, 192.0, 0.0, 0.0, 0.0, 0.0, 0.0, 0.0, 0.0, 0.0, 0.0, 1.7184699144661436E9, 0.0, 2024-06-15 11:45:14.466
113.0, 36931.54149431485, 44509.18519606414, 63765.771837922555, -187500.02235174447, -55333.01744854658, -187500.02235174447, -136600.42871241912, 10786.437784008716, -0.07, 0.9580000000000001, 0.246, 192.0, 0.0, 0.0, 0.0, 0.0, 0.0, 0.0, 0.0, 0.0, 0.0, 1.7184699144661531E9, 0.0, 2024-06-15 11:45:14.466
114.0, 36965.44909065355, 44693.58708782042, 63473.343965213775, -187500.02235174447, -55209.725226131115, -187500.02235174447, -136588.26936343545, 10788.717661943158, -0.07, 0.9580000000000001, 0.246, 192.0, 0.0, 0.0, 0.0, 0.0, 0.0, 0.0, 0.0, 0.0, 0.0, 1.7184699144661624E9, 0.0, 2024-06-15 11:45:14.466
115.0, 37067.261286647474, 45067.24119987979, 64545.15481533466, -187500.02235174447, -55284.111831678376, -187500.02235174447, -136474.4095771801, 11246.123760476561, -0.07, 0.9580000000000001, 0.246, 192.0, 0.0, 0.0, 0.0, 0.0, 0.0, 0.0, 0.0, 0.0, 0.0, 1.718469914466172E9, 0.0, 2024-06-15 11:45:14.466
116.0, 37040.75211772348, 44910.55547124809, 65178.75971540925, -187500.02235174447, -55359.43721049276, -187500.02235174447, -136449.33091990126, 11488.327263394269, -0.07, 0.9580000000000001, 0.246, 192.0, 0.0, 0.0, 0.0, 0.0, 0.0, 0.0, 0.0, 0.0, 0.0, 1.7184699144661815E9, 0.0, 2024-06-15 11:45:14.466
117.0, 36935.87773273918, 44526.66426022819, 63938.34965686198, -187500.02235174447, -55241.97879338012, -187500.02235174447, -136580.62506683174, 10958.255643636661, -0.07, 0.9580000000000001, 0.246, 192.0, 0.0, 0.0, 0.0, 0.0, 0.0, 0.0, 0.0, 0.0, 0.0, 1.7184699144661903E9, 0.0, 2024-06-15 11:45:14.466
118.0, 36963.28097144139, 44653.24218907859, 63437.335304896274, -187500.02235174447, -55091.48449796254, -187500.02235174447, -136586.16829945665, 10882.080898532975, -0.07, 0.9580000000000001, 0.246, 192.0, 0.0, 0.0, 0.0, 0.0, 0.0, 0.0, 0.0, 0.0, 0.0, 1.7184699144661996E9, 0.0, 2024-06-15 11:45:14.466
119.0, 37054.11846090775, 45024.549367970154, 64308.51689678632, -187500.02235174447, -55104.53791672444, -187500.02235174447, -136458.8080595503, 11287.13921155205, -0.07, 0.9580000000000001, 0.246, 192.0, 0.0, 0.0, 0.0, 0.0, 0.0, 0.0, 0.0, 0.0, 0.0, 1.7184699144662092E9, 0.0, 2024-06-15 11:45:14.466
120.0, 37060.04167318841, 44994.30745772213, 65303.10246981412, -187500.02235174447, -55176.48818212607, -187500.02235174447, -136370.3845584851, 11699.417138030189, -0.07, 0.9580000000000001, 0.246, 192.0, 0.0, 0.0, 0.0, 0.0, 0.0, 0.0, 0.0, 0.0, 0.0, 1.718469914466218E9, 0.0, 2024-06-15 11:45:14.466
121.0, 36954.34027365926, 44565.82451651389, 64172.70769747588, -187500.02235174447, -55119.22301283157, -187500.02235174447, -136533.14996160867, 11170.217236306338, -0.088, 0.9580000000000001, 0.23800000000000002, 192.0, 253.0, 64.0, 29.0, 240.0, 7.0, 112.0, 0.0, 0.0, 0.0, 1.7184699144662273E9, 0.0, 2024-06-15 11:45:14.466
122.0, 36948.30530265633, 44601.85552857584, 63433.2225839165, -187500.02235174447, -54982.095060598265, -187500.02235174447, -136590.30337218088, 10961.11666692694, -0.088, 0.9580000000000001, 0.23800000000000002, 192.0, 0.0, 0.0, 0.0, 0.0, 0.0, 0.0, 0.0, 0.0, 0.0, 1.7184699144662364E9, 0.0, 2024-06-15 11:45:14.466
123.0, 37030.40326004067, 44954.70016654732, 64043.939297668854, -187500.02235174447, -54968.01346159142, -187500.02235174447, -136486.59127790824, 11261.61351938409, -0.088, 0.9580000000000001, 0.23800000000000002, 192.0, 0.0, 0.0, 0.0, 0.0, 0.0, 0.0, 0.0, 0.0, 0.0, 1.718469914466246E9, 0.0, 2024-06-15 11:45:14.466
124.0, 37067.417748858665, 45048.42103104843, 65281.64479513703, -187500.02235174447, -55052.927738777136, -187500.02235174447, -136361.55561942526, 11770.160409231235, -0.088, 0.9580000000000001, 0.23800000000000002, 192.0, 0.0, 0.0, 0.0, 0.0, 0.0, 0.0, 0.0, 0.0, 0.0, 1.7184699144662552E9, 0.0, 2024-06-15 11:45:14.466
125.0, 36991.53357643289, 44632.589177201895, 64413.16776432607, -187500.02235174447, -55024.65278204117, -187500.02235174447, -136504.76324615043, 11336.827139476198, -0.088, 0.9580000000000001, 0.23800000000000002, 192.0, 0.0, 0.0, 0.0, 0.0, 0.0, 0.0, 0.0, 0.0, 0.0, 1.71846991446629E9, 0.0, 2024-06-15 11:45:14.466
126.0, 36954.2732184259, 44570.920714249696, 63487.42556422062, -187500.02235174447, -54863.40729754059, -187500.02235174447, -136574.4336336176, 11044.086342345041, -0.088, 0.9580000000000001, 0.23800000000000002, 192.0, 0.0, 0.0, 0.0, 0.0, 0.0, 0.0, 0.0, 0.0, 0.0, 1.7184699144663079E9, 0.0, 2024-06-15 11:45:14.466
127.0, 37032.92900716412, 44894.77513966264, 63857.92808031179, -187500.02235174447, -54795.27918044081, -187500.02235174447, -136476.64475162563, 11283.652339417022, -0.088, 0.9580000000000001, 0.23800000000000002, 192.0, 0.0, 0.0, 0.0, 0.0, 0.0, 0.0, 0.0, 0.0, 0.0, 1.7184699144663236E9, 0.0, 2024-06-15 11:45:14.466
128.0, 37089.76949331397, 45097.08077872763, 65213.15905012596, -187500.02235174447, -54890.31879786478, -187500.02235174447, -136338.35450868064, 11836.05335188548, -0.088, 0.9580000000000001, 0.23800000000000002, 192.0, 0.0, 0.0, 0.0, 0.0, 0.0, 0.0, 0.0, 0.0, 0.0, 1.718469914466357E9, 0.0, 2024-06-15 11:45:14.466
129.0, 37009.258509785956, 44698.1021402004, 64691.69285198365, -187500.02235174447, -54879.7017192485, -187500.02235174447, -136438.8032482628, 11557.103581083249, -0.088, 0.9580000000000001, 0.23800000000000002, 192.0, 0.0, 0.0, 0.0, 0.0, 0.0, 0.0, 0.0, 0.0, 0.0, 1.7184699144663863E9, 0.0, 2024-06-15 11:45:14.466
130.0, 36971.99815177896, 44563.34347287935, 63564.650841313705, -187500.02235174447, -54742.506711781825, -187500.02235174447, -136562.02841544492, 11131.213442231829, -0.088, 0.9580000000000001, 0.23800000000000002, 192.0, 0.0, 0.0, 0.0, 0.0, 0.0, 0.0, 0.0, 0.0, 0.0, 1.718469914466396E9, 0.0, 2024-06-15 11:45:14.466
131.0, 37037.80168745538, 44844.10373498246, 63679.6282147918, -187500.02235174447, -54657.637138085025, -187500.02235174447, -136503.8691763722, 11270.598920655122, -0.108, 0.96, 0.232, 192.0, 252.0, 160.0, 30.0, 0.0, 7.0, 64.0, 0.0, 0.0, 0.0, 1.7184699144664233E9, 0.0, 2024-06-15 11:45:14.466
132.0, 37110.80248484641, 45127.65796514249, 64995.76598355365, -187500.02235174447, -54796.88850604159, -187500.02235174447, -136403.3533815567, 11774.47429591111, -0.108, 0.96, 0.232, 192.0, 0.0, 0.0, 0.0, 0.0, 0.0, 0.0, 0.0, 0.0, 0.0, 1.7184699144664323E9, 0.0, 2024-06-15 11:45:14.466
133.0, 37028.65982397316, 44779.77541444009, 64887.5164851566, -187500.02235174447, -54826.03518081131, -187500.02235174447, -136467.5028881434, 11675.07608831836, -0.108, 0.96, 0.232, 192.0, 0.0, 0.0, 0.0, 0.0, 0.0, 0.0, 0.0, 0.0, 0.0, 1.7184699144664416E9, 0.0, 2024-06-15 11:45:14.466
134.0, 36949.132317201176, 44528.698268973625, 63682.39983110426, -187500.02235174447, -54637.76643726426, -187500.02235174447, -136555.74757525296, 11234.925536504452, -0.108, 0.96, 0.232, 192.0, 0.0, 0.0, 0.0, 0.0, 0.0, 0.0, 0.0, 0.0, 0.0, 1.7184699144664507E9, 0.0, 2024-06-15 11:45:14.466
135.0, 37015.76286742245, 44771.773489925086, 63567.57891983735, -187500.02235174447, -54512.82018575909, -187500.02235174447, -136513.4133712546, 11313.469566520402, -0.108, 0.96, 0.232, 192.0, 0.0, 0.0, 0.0, 0.0, 0.0, 0.0, 0.0, 0.0, 0.0, 1.7184699144664595E9, 0.0, 2024-06-15 11:45:14.466
136.0, 37107.31561271138, 45118.516101660265, 64806.84903941739, -187500.02235174447, -54589.86664889654, -187500.02235174447, -136368.41760497304, 11823.536374990508, -0.108, 0.96, 0.232, 192.0, 0.0, 0.0, 0.0, 0.0, 0.0, 0.0, 0.0, 0.0, 0.0, 1.7184699145639594E9, 0.0, 2024-06-15 11:45:14.563
137.0, 37061.87451623374, 44871.41756670685, 65112.88912449946, -187500.02235174447, -54660.34169916412, -187500.02235174447, -136396.91607915357, 11899.375843927366, -0.108, 0.96, 0.232, 192.0, 0.0, 0.0, 0.0, 0.0, 0.0, 0.0, 0.0, 0.0, 0.0, 1.718469914563982E9, 0.0, 2024-06-15 11:45:14.563
138.0, 36976.13322450319, 44552.52522856298, 63833.60938234442, -187500.02235174447, -54525.13599695397, -187500.02235174447, -136539.989595412, 11377.6861283405, -0.108, 0.96, 0.232, 192.0, 0.0, 0.0, 0.0, 0.0, 0.0, 0.0, 0.0, 0.0, 0.0, 1.7184699145639937E9, 0.0, 2024-06-15 11:45:14.563
139.0, 37004.65405042816, 44723.113742245885, 63525.8929164282, -187500.02235174447, -54344.377439543896, -187500.02235174447, -136492.69330414454, 11417.561640448766, -0.108, 0.96, 0.232, 192.0, 0.0, 0.0, 0.0, 0.0, 0.0, 0.0, 0.0, 0.0, 0.0, 1.718469914564005E9, 0.0, 2024-06-15 11:45:14.564
140.0, 37096.005630017, 45087.134252445016, 64583.30924311987, -187500.02235174447, -54382.77773651812, -187500.02235174447, -136344.00950002784, 11883.617864086375, -0.108, 0.96, 0.232, 192.0, 0.0, 0.0, 0.0, 0.0, 0.0, 0.0, 0.0, 0.0, 0.0, 1.7184699145640166E9, 0.0, 2024-06-15 11:45:14.564
141.0, 37077.43133037464, 44953.22495141327, 65291.52426618627, -187500.02235174447, -54471.3576997945, -187500.02235174447, -136313.49936884636, 12148.955422515324, -0.10200000000000001, 0.9580000000000001, 0.234, 192.0, 252.0, 208.0, 29.0, 240.0, 7.0, 80.0, 0.0, 0.0, 0.0, 1.7184699145640273E9, 0.0, 2024-06-15 11:45:14.564
142.0, 36987.018524052924, 44571.94889449464, 64047.60498375953, -187500.02235174447, -54374.88757072539, -187500.02235174447, -136471.83912656773, 11615.307523644868, -0.10200000000000001, 0.9580000000000001, 0.234, 192.0, 0.0, 0.0, 0.0, 0.0, 0.0, 0.0, 0.0, 0.0, 0.0, 1.7184699145640616E9, 0.0, 2024-06-15 11:45:14.564
143.0, 36990.19247176558, 44662.65227349428, 63511.38663427671, -187500.02235174447, -54182.4390509652, -187500.02235174447, -136456.61758859368, 11562.065668352327, -0.10200000000000001, 0.9580000000000001, 0.234, 192.0, 0.0, 0.0, 0.0, 0.0, 0.0, 0.0, 0.0, 0.0, 0.0, 1.718469914564072E9, 0.0, 2024-06-15 11:45:14.564
144.0, 37099.44779866312, 45040.977900144804, 64290.657852966535, -187500.02235174447, -54235.5020923021, -187500.02235174447, -136370.20574452946, 11904.047358518525, -0.10200000000000001, 0.9580000000000001, 0.234, 192.0, 0.0, 0.0, 0.0, 0.0, 0.0, 0.0, 0.0, 0.0, 0.0, 1.7184699145640976E9, 0.0, 2024-06-15 11:45:14.564
145.0, 37105.795694088425, 45041.559045500646, 65325.521269502795, -187500.02235174447, -54354.21220710423, -187500.02235174447, -136303.57519430819, 12304.992950557822, -0.10200000000000001, 0.9580000000000001, 0.234, 192.0, 0.0, 0.0, 0.0, 0.0, 0.0, 0.0, 0.0, 0.0, 0.0, 1.7184699145641067E9, 0.0, 2024-06-15 11:45:14.564
146.0, 36998.57437593632, 44611.08679903589, 64239.62882037507, -187500.02235174447, -54297.93051456577, -187500.02235174447, -136463.54662937482, 11822.463491256654, -0.10200000000000001, 0.9580000000000001, 0.234, 192.0, 0.0, 0.0, 0.0, 0.0, 0.0, 0.0, 0.0, 0.0, 0.0, 1.7184699145641155E9, 0.0, 2024-06-15 11:45:14.564
147.0, 36987.89024208668, 44631.806866145955, 63485.41390721964, -187500.02235174447, -54103.246820360044, -187500.02235174447, -136487.15007151963, 11665.889521347228, -0.10200000000000001, 0.9580000000000001, 0.234, 192.0, 0.0, 0.0, 0.0, 0.0, 0.0, 0.0, 0.0, 0.0, 0.0, 1.7184699145641248E9, 0.0, 2024-06-15 11:45:14.564
148.0, 37085.43325488964, 44987.19960298534, 64023.532154981156, -187500.02235174447, -54101.97277092609, -187500.02235174447, -136400.67117222204, 11945.711010183217, -0.10200000000000001, 0.9580000000000001, 0.234, 192.0, 0.0, 0.0, 0.0, 0.0, 0.0, 0.0, 0.0, 0.0, 0.0, 1.718469914564134E9, 0.0, 2024-06-15 11:45:14.564
149.0, 37116.546883171424, 45101.64053459651, 65283.6117486491, -187500.02235174447, -54228.885975943325, -187500.02235174447, -136295.10388315964, 12438.321106233729, -0.10200000000000001, 0.9580000000000001, 0.234, 192.0, 0.0, 0.0, 0.0, 0.0, 0.0, 0.0, 0.0, 0.0, 0.0, 1.7184699145641427E9, 0.0, 2024-06-15 11:45:14.564
150.0, 37013.237120298996, 44667.323788085436, 64492.11412574221, -187500.02235174447, -54179.15334453027, -187500.02235174447, -136403.91217516808, 12085.387061284431, -0.10200000000000001, 0.9580000000000001, 0.234, 192.0, 0.0, 0.0, 0.0, 0.0, 0.0, 0.0, 0.0, 0.0, 0.0, 1.7184699145641515E9, 0.0, 2024-06-15 11:45:14.564
151.0, 36973.316904701824, 44592.937182538175, 63518.69565471359, -187500.02235174447, -53999.28885689841, -187500.02235174447, -136473.3143417018, 11802.011645080049, -0.084, 0.9540000000000001, 0.24, 192.0, 253.0, 96.0, 29.0, 208.0, 7.0, 128.0, 0.0, 0.0, 0.0, 1.7184699145641603E9, 0.0, 2024-06-15 11:45:14.564
152.0, 37063.52854532344, 44912.902404415894, 63851.915461053315, -187500.02235174447, -53904.60686738573, -187500.02235174447, -136349.77625009732, 12060.733087150227, -0.084, 0.9540000000000001, 0.24, 192.0, 0.0, 0.0, 0.0, 0.0, 0.0, 0.0, 0.0, 0.0, 0.0, 1.7184699145641694E9, 0.0, 2024-06-15 11:45:14.564
153.0, 37143.59249396235, 45148.579197952655, 65187.56630272464, -187500.02235174447, -54057.671613415674, -187500.02235174447, -136242.37611798957, 12569.123514786186, -0.084, 0.9540000000000001, 0.24, 192.0, 0.0, 0.0, 0.0, 0.0, 0.0, 0.0, 0.0, 0.0, 0.0, 1.7184699145641785E9, 0.0, 2024-06-15 11:45:14.564
154.0, 37052.464431818065, 44753.176838538275, 64733.468262370625, -187500.02235174447, -54093.546163266445, -187500.02235174447, -136360.21451475794, 12319.253363520309, -0.084, 0.9540000000000001, 0.24, 192.0, 0.0, 0.0, 0.0, 0.0, 0.0, 0.0, 0.0, 0.0, 0.0, 1.7184699145641873E9, 0.0, 2024-06-15 11:45:14.564
155.0, 36981.72116061702, 44579.81670854291, 63611.92478083668, -187500.02235174447, -53906.126786008695, -187500.02235174447, -136437.48449533994, 11954.986984132169, -0.084, 0.9540000000000001, 0.24, 192.0, 0.0, 0.0, 0.0, 0.0, 0.0, 0.0, 0.0, 0.0, 0.0, 1.7184699145641963E9, 0.0, 2024-06-15 11:45:14.564
156.0, 37059.035844687925, 44858.43120317831, 63662.104447138845, -187500.02235174447, -53834.80236945181, -187500.02235174447, -136393.96564888547, 12087.331663052042, -0.084, 0.9540000000000001, 0.24, 192.0, 0.0, 0.0, 0.0, 0.0, 0.0, 0.0, 0.0, 0.0, 0.0, 1.7184699145642052E9, 0.0, 2024-06-15 11:45:14.564
157.0, 37125.95696758711, 45143.93003510595, 65001.75625106767, -187500.02235174447, -53944.23651030499, -187500.02235174447, -136240.78914413325, 12631.730751005502, -0.084, 0.9540000000000001, 0.24, 192.0, 0.0, 0.0, 0.0, 0.0, 0.0, 0.0, 0.0, 0.0, 0.0, 1.718469914564214E9, 0.0, 2024-06-15 11:45:14.564
158.0, 37063.68500753463, 44823.428371361304, 64988.345204394485, -187500.02235174447, -53983.30735961287, -187500.02235174447, -136283.74919697634, 12593.621026709203, -0.084, 0.9540000000000001, 0.24, 192.0, 0.0, 0.0, 0.0, 0.0, 0.0, 0.0, 0.0, 0.0, 0.0, 1.7184699147653103E9, 0.0, 2024-06-15 11:45:14.765
159.0, 36982.14584376167, 44556.928522220674, 63702.717566814135, -187500.02235174447, -53862.004442453916, -187500.02235174447, -136437.41744010657, 12106.576515028062, -0.084, 0.9540000000000001, 0.24, 192.0, 0.0, 0.0, 0.0, 0.0, 0.0, 0.0, 0.0, 0.0, 0.0, 1.7184699147653294E9, 0.0, 2024-06-15 11:45:14.765
160.0, 37031.31968156334, 44774.45569925973, 63559.755809277995, -187500.02235174447, -53728.87745247811, -187500.02235174447, -136386.70133193748, 12197.659873683438, -0.084, 0.9540000000000001, 0.24, 192.0, 0.0, 0.0, 0.0, 0.0, 0.0, 0.0, 0.0, 0.0, 0.0, 1.718469914765341E9, 0.0, 2024-06-15 11:45:14.765
161.0, 37129.30972925541, 45121.93591856193, 64735.03288448249, -187500.02235174447, -53882.67980607507, -187500.02235174447, -136293.91924070352, 12636.268155129928, -0.084, 0.9540000000000001, 0.24, 192.0, 0.0, 0.0, 0.0, 0.0, 0.0, 0.0, 0.0, 0.0, 0.0, 1.7184699147653515E9, 0.0, 2024-06-15 11:45:14.765
162.0, 37097.77141782897, 44918.73620971873, 65145.299153959655, -187500.02235174447, -53978.85936246626, -187500.02235174447, -136310.34777287816, 12733.811167932889, -0.07, 0.9540000000000001, 0.232, 192.0, 253.0, 208.0, 29.0, 208.0, 7.0, 64.0, 0.0, 0.0, 0.0, 1.7184699147653615E9, 0.0, 2024-06-15 11:45:14.765
163.0, 37000.451922470565, 44582.90124927774, 63845.03112376108, -187500.02235174447, -53886.390195654654, -187500.02235174447, -136479.0140365379, 12167.306204713132, -0.07, 0.9540000000000001, 0.232, 192.0, 0.0, 0.0, 0.0, 0.0, 0.0, 0.0, 0.0, 0.0, 0.0, 1.7184699147653716E9, 0.0, 2024-06-15 11:45:14.765
164.0, 37012.07482958732, 44723.69488760172, 63485.07863105281, -187500.02235174447, -53722.64131577508, -187500.02235174447, -136441.3066436418, 12146.45202713633, -0.07, 0.9540000000000001, 0.232, 192.0, 0.0, 0.0, 0.0, 0.0, 0.0, 0.0, 0.0, 0.0, 0.0, 1.7184699147653816E9, 0.0, 2024-06-15 11:45:14.765
165.0, 37123.25240650802, 45097.50546187228, 64463.50389283942, -187500.02235174447, -53812.160052318584, -187500.02235174447, -136327.40215389756, 12515.099348437709, -0.07, 0.9540000000000001, 0.232, 192.0, 0.0, 0.0, 0.0, 0.0, 0.0, 0.0, 0.0, 0.0, 0.0, 1.7184699147653916E9, 0.0, 2024-06-15 11:45:14.765
166.0, 37098.24080446253, 44989.27831521968, 65252.2522511783, -187500.02235174447, -53940.05673409185, -187500.02235174447, -136296.15441514904, 12745.6575924942, -0.07, 0.9540000000000001, 0.232, 192.0, 0.0, 0.0, 0.0, 0.0, 0.0, 0.0, 0.0, 0.0, 0.0, 1.7184699147654016E9, 0.0, 2024-06-15 11:45:14.765
167.0, 36998.86494861424, 44591.752540082045, 64045.30275408063, -187500.02235174447, -53862.89851223213, -187500.02235174447, -136452.08018446926, 12184.718213643815, -0.07, 0.9540000000000001, 0.232, 192.0, 0.0, 0.0, 0.0, 0.0, 0.0, 0.0, 0.0, 0.0, 0.0, 1.7184699147654116E9, 0.0, 2024-06-15 11:45:14.765
168.0, 37000.161349792645, 44663.479288039125, 63446.007781744935, -187500.02235174447, -53715.756978482845, -187500.02235174447, -136476.0636062698, 12022.04221749809, -0.07, 0.9540000000000001, 0.232, 192.0, 0.0, 0.0, 0.0, 0.0, 0.0, 0.0, 0.0, 0.0, 0.0, 1.7184699147654214E9, 0.0, 2024-06-15 11:45:14.765
169.0, 37114.08819128134, 45040.17323734442, 64187.14692439401, -187500.02235174447, -53761.80157206077, -187500.02235174447, -136374.9890178429, 12314.53714544024, -0.07, 0.9540000000000001, 0.232, 192.0, 0.0, 0.0, 0.0, 0.0, 0.0, 0.0, 0.0, 0.0, 0.0, 1.718469914765431E9, 0.0, 2024-06-15 11:45:14.765
170.0, 37133.53420895746, 45071.24216213729, 65258.28722218123, -187500.02235174447, -53937.88861487969, -187500.02235174447, -136333.6382906006, 12643.666582544636, -0.07, 0.9540000000000001, 0.232, 192.0, 0.0, 0.0, 0.0, 0.0, 0.0, 0.0, 0.0, 0.0, 0.0, 1.7184699147654407E9, 0.0, 2024-06-15 11:45:14.765
171.0, 37024.27888205992, 44640.74756392808, 64253.531605426266, -187500.02235174447, -53881.293997918845, -187500.02235174447, -136463.2560566969, 12169.429620436385, -0.07, 0.9540000000000001, 0.232, 192.0, 0.0, 0.0, 0.0, 0.0, 0.0, 0.0, 0.0, 0.0, 0.0, 1.7184699147654507E9, 0.0, 2024-06-15 11:45:14.765
172.0, 37005.70458241756, 44639.69703193868, 63444.1749386996, -187500.02235174447, -53733.526615324816, -187500.02235174447, -136518.6660312016, 11920.252373248622, -0.068, 0.966, 0.222, 192.0, 253.0, 224.0, 30.0, 48.0, 6.0, 240.0, 0.0, 0.0, 0.0, 1.7184699147654605E9, 0.0, 2024-06-15 11:45:14.765
173.0, 37099.850130063314, 44984.80796632862, 63958.71209606077, -187500.02235174447, -53703.86585043262, -187500.02235174447, -136403.21927108994, 12190.663777668928, -0.068, 0.966, 0.222, 192.0, 0.0, 0.0, 0.0, 0.0, 0.0, 0.0, 0.0, 0.0, 0.0, 1.71846991476547E9, 0.0, 2024-06-15 11:45:14.765
174.0, 37139.12214507129, 45121.84651158411, 65233.946172469405, -187500.02235174447, -53862.18325640956, -187500.02235174447, -136305.56449956473, 12641.967849966031, -0.068, 0.966, 0.222, 192.0, 0.0, 0.0, 0.0, 0.0, 0.0, 0.0, 0.0, 0.0, 0.0, 1.7184699147654805E9, 0.0, 2024-06-15 11:45:14.765
175.0, 37042.89788519119, 44702.19250943572, 64501.30069271335, -187500.02235174447, -53870.386346624655, -187500.02235174447, -136440.47962909695, 12264.893921005001, -0.068, 0.966, 0.222, 192.0, 0.0, 0.0, 0.0, 0.0, 0.0, 0.0, 0.0, 0.0, 0.0, 1.718469914765493E9, 0.0, 2024-06-15 11:45:14.765
176.0, 37000.56368119284, 44604.51538616603, 63472.06991577982, -187500.02235174447, -53758.00177550338, -187500.02235174447, -136553.84767697426, 11893.944370024727, -0.068, 0.966, 0.222, 192.0, 0.0, 0.0, 0.0, 0.0, 0.0, 0.0, 0.0, 0.0, 0.0, 1.718469914765524E9, 0.0, 2024-06-15 11:45:14.765
177.0, 37078.258344919486, 44907.71679970226, 63714.809860564455, -187500.02235174447, -53723.98242044239, -187500.02235174447, -136491.77688262187, 12075.328776279543, -0.068, 0.966, 0.222, 192.0, 0.0, 0.0, 0.0, 0.0, 0.0, 0.0, 0.0, 0.0, 0.0, 1.7184699147655337E9, 0.0, 2024-06-15 11:45:14.765
178.0, 37118.06680179439, 45120.25953772778, 65078.601548505016, -187500.02235174447, -53854.00251793892, -187500.02235174447, -136350.7373751089, 12605.310989059328, -0.068, 0.966, 0.222, 192.0, 0.0, 0.0, 0.0, 0.0, 0.0, 0.0, 0.0, 0.0, 0.0, 1.7184699147655432E9, 0.0, 2024-06-15 11:45:14.765
179.0, 37042.115574135256, 44745.73370763465, 64748.17571022221, -187500.02235174447, -53863.43495409906, -187500.02235174447, -136412.83052120573, 12425.64766712757, -0.068, 0.966, 0.222, 192.0, 0.0, 0.0, 0.0, 0.0, 0.0, 0.0, 0.0, 0.0, 0.0, 1.7184699147655523E9, 0.0, 2024-06-15 11:45:14.765
180.0, 36985.498605429966, 44569.22198167109, 63551.30684987389, -187500.02235174447, -53772.82098207724, -187500.02235174447, -136562.36369161174, 11956.261033566123, -0.068, 0.966, 0.222, 192.0, 0.0, 0.0, 0.0, 0.0, 0.0, 0.0, 0.0, 0.0, 0.0, 1.718469914765562E9, 0.0, 2024-06-15 11:45:14.765
186.0, 37144.35245327383, 45132.016555311275, 64674.07967735287, -187500.02235174447, -53730.75499901235, -187500.02235174447, -136349.70919486394, 12643.711286033546, -0.068, 0.966, 0.222, 192.0, 0.0, 0.0, 0.0, 0.0, 0.0, 0.0, 0.0, 0.0, 0.0, 1.718469914765571E9, 0.0, 2024-06-15 11:45:14.765
182.0, 37118.49148493904, 45121.15360750599, 64897.64182539485, -187500.02235174447, -53800.93947660202, -187500.02235174447, -136352.77138385433, 12618.520870032415, -0.076, 0.966, 0.216, 192.0, 253.0, 160.0, 30.0, 48.0, 6.0, 192.0, 0.0, 0.0, 0.0, 1.7184699147655804E9, 0.0, 2024-06-15 11:45:14.765
183.0, 37048.1952486271, 44816.2758131356, 64982.53375083611, -187500.02235174447, -53863.32319537678, -187500.02235174447, -136386.1425383261, 12602.15939309113, -0.076, 0.966, 0.216, 192.0, 0.0, 0.0, 0.0, 0.0, 0.0, 0.0, 0.0, 0.0, 0.0, 1.718469914765591E9, 0.0, 2024-06-15 11:45:14.765
184.0, 36970.34412268926, 44545.752649993025, 63700.52709585752, -187500.02235174447, -53770.58580763171, -187500.02235174447, -136535.20632209853, 12088.561008997085, -0.076, 0.966, 0.216, 192.0, 0.0, 0.0, 0.0, 0.0, 0.0, 0.0, 0.0, 0.0, 0.0, 1.718469914765627E9, 0.0, 2024-06-15 11:45:14.765
187.0, 37095.044505005426, 44921.41841905337, 65170.891901360985, -187500.02235174447, -53843.072514900276, -187500.02235174447, -136357.80052635676, 12784.840200524355, -0.076, 0.966, 0.216, 192.0, 0.0, 0.0, 0.0, 0.0, 0.0, 0.0, 0.0, 0.0, 0.0, 1.7184699147656367E9, 0.0, 2024-06-15 11:45:14.765
188.0, 37006.62100394023, 44573.42410962869, 63880.570397445015, -187500.02235174447, -53775.14556350059, -187500.02235174447, -136518.10723759024, 12235.479025301818, -0.076, 0.966, 0.216, 192.0, 0.0, 0.0, 0.0, 0.0, 0.0, 0.0, 0.0, 0.0, 0.0, 1.718469914765646E9, 0.0, 2024-06-15 11:45:14.765
189.0, 37026.24583557199, 44708.60746009439, 63467.756029099946, -187500.02235174447, -53646.24305322684, -187500.02235174447, -136496.78367337986, 12200.722062673816, -0.076, 0.966, 0.216, 192.0, 0.0, 0.0, 0.0, 0.0, 0.0, 0.0, 0.0, 0.0, 0.0, 1.7184699147656553E9, 0.0, 2024-06-15 11:45:14.765
190.0, 37136.99872934804, 45089.81646177965, 64426.95879065499, -187500.02235174447, -53690.655969459534, -187500.02235174447, -136368.97639858443, 12626.12046314722, -0.076, 0.966, 0.216, 192.0, 0.0, 0.0, 0.0, 0.0, 0.0, 0.0, 0.0, 0.0, 0.0, 1.718469914765668E9, 0.0, 2024-06-15 11:45:14.765
191.0, 37132.30486301242, 45019.40846674544, 65296.75457438882, -187500.02235174447, -53835.27175608537, -187500.02235174447, -136338.62272961412, 12915.284981165527, -0.076, 0.966, 0.216, 192.0, 0.0, 0.0, 0.0, 0.0, 0.0, 0.0, 0.0, 0.0, 0.0, 1.718469914765698E9, 0.0, 2024-06-15 11:45:14.765
192.0, 37024.1894750821, 44602.70489486514, 64099.393975662475, -187500.02235174447, -53801.92295335805, -187500.02235174447, -136504.65148742814, 12380.966529961412, -0.076, 0.968, 0.20800000000000002, 192.0, 253.0, 160.0, 30.0, 64.0, 6.0, 128.0, 0.0, 0.0, 0.0, 1.7184699147657073E9, 0.0, 2024-06-15 11:45:14.765
193.0, 37036.862914188256, 44678.3431981019, 63440.621011331204, -187500.02235174447, -53705.743396966864, -187500.02235174447, -136547.2762641044, 12214.535440747195, -0.076, 0.968, 0.20800000000000002, 192.0, 0.0, 0.0, 0.0, 0.0, 0.0, 0.0, 0.0, 0.0, 0.0, 1.7184699147657163E9, 0.0, 2024-06-15 11:45:14.765
194.0, 37127.678051910174, 45033.04303086317, 64162.76117119327, -187500.02235174447, -53704.6258097441, -187500.02235174447, -136426.57684404575, 12583.942721360056, -0.076, 0.968, 0.20800000000000002, 192.0, 0.0, 0.0, 0.0, 0.0, 0.0, 0.0, 0.0, 0.0, 0.0, 1.718469914765741E9, 0.0, 2024-06-15 11:45:14.765
195.0, 37130.762592645005, 45063.374348089026, 65326.46004276992, -187500.02235174447, -53841.262023599396, -187500.02235174447, -136341.1931802265, 13024.160328407328, -0.076, 0.968, 0.20800000000000002, 192.0, 0.0, 0.0, 0.0, 0.0, 0.0, 0.0, 0.0, 0.0, 0.0, 1.7184699147657502E9, 0.0, 2024-06-15 11:45:14.765
196.0, 37055.81719348636, 44660.10417462637, 64368.821903326745, -187500.02235174447, -53817.3009535433, -187500.02235174447, -136474.4095771801, 12592.078756341787, -0.076, 0.968, 0.20800000000000002, 192.0, 0.0, 0.0, 0.0, 0.0, 0.0, 0.0, 0.0, 0.0, 0.0, 1.7184699147657592E9, 0.0, 2024-06-15 11:45:14.765
197.0, 37031.81141994136, 44642.7368691846, 63503.898799884184, -187500.02235174447, -53713.186527870486, -187500.02235174447, -136534.15579010913, 12332.776168915769, -0.076, 0.968, 0.20800000000000002, 192.0, 0.0, 0.0, 0.0, 0.0, 0.0, 0.0, 0.0, 0.0, 0.0, 1.7184699147657888E9, 0.0, 2024-06-15 11:45:14.765
198.0, 37115.60810990431, 44972.134527222464, 63936.11448241645, -187500.02235174447, -53714.39352207107, -187500.02235174447, -136469.84982131122, 12594.179820320585, -0.076, 0.968, 0.20800000000000002, 192.0, 0.0, 0.0, 0.0, 0.0, 0.0, 0.0, 0.0, 0.0, 0.0, 1.718469914765798E9, 0.0, 2024-06-15 11:45:14.765
199.0, 37151.862639410814, 45131.21189251088, 65284.148190516025, -187500.02235174447, -53832.20956709499, -187500.02235174447, -136339.76266858133, 13133.102730882494, -0.076, 0.968, 0.20800000000000002, 192.0, 0.0, 0.0, 0.0, 0.0, 0.0, 0.0, 0.0, 0.0, 0.0, 1.7184699147658072E9, 0.0, 2024-06-15 11:45:14.765
200.0, 37064.981408713036, 44725.907710302796, 64620.10021449331, -187500.02235174447, -53866.78771576735, -187500.02235174447, -136469.89452480013, 12799.078261742385, -0.076, 0.968, 0.20800000000000002, 192.0, 0.0, 0.0, 0.0, 0.0, 0.0, 0.0, 0.0, 0.0, 0.0, 1.7184699147658322E9, 0.0, 2024-06-15 11:45:14.765
201.0, 37013.08065808781, 44604.269516977016, 63526.697579228596, -187500.02235174447, -53807.24266853841, -187500.02235174447, -136598.26059320697, 12386.934445730978, -0.076, 0.968, 0.20800000000000002, 192.0, 0.0, 0.0, 0.0, 0.0, 0.0, 0.0, 0.0, 0.0, 0.0, 1.7184699147658412E9, 0.0, 2024-06-15 11:45:14.765
202.0, 37076.38079838524, 44884.85096512449, 63720.59896237838, -187500.02235174447, -53767.5906738747, -187500.02235174447, -136542.6271012577, 12568.363555474705, -0.076, 0.968, 0.20800000000000002, 192.0, 0.0, 0.0, 0.0, 0.0, 0.0, 0.0, 0.0, 0.0, 0.0, 1.7184699147658503E9, 0.0, 2024-06-15 11:45:14.765
203.0, 37152.68965395566, 45147.57336945217, 65112.710310543815, -187500.02235174447, -53882.16571595261, -187500.02235174447, -136406.01323914688, 13119.423463275847, -0.074, 0.964, 0.214, 192.0, 253.0, 176.0, 30.0, 32.0, 6.0, 176.0, 0.0, 0.0, 0.0, 1.7184699147658591E9, 0.0, 2024-06-15 11:45:14.765
204.0, 37067.66361804767, 44778.99310338415, 64892.05388928103, -187500.02235174447, -53892.76044282442, -187500.02235174447, -136442.20071342, 12990.208028579716, -0.074, 0.964, 0.214, 192.0, 0.0, 0.0, 0.0, 0.0, 0.0, 0.0, 0.0, 0.0, 0.0, 1.718469914765868E9, 0.0, 2024-06-15 11:45:14.765
205.0, 37015.56170172235, 44584.8234993009, 63638.59041197186, -187500.02235174447, -53846.11235214619, -187500.02235174447, -136598.4841106515, 12474.709746206969, -0.074, 0.964, 0.214, 192.0, 0.0, 0.0, 0.0, 0.0, 0.0, 0.0, 0.0, 0.0, 0.0, 1.718469914765877E9, 0.0, 2024-06-15 11:45:14.765
206.0, 37075.3526181403, 44836.05710697855, 63610.69543489164, -187500.02235174447, -53772.172781488036, -187500.02235174447, -136544.7281652365, 12583.316872515306, -0.074, 0.964, 0.214, 192.0, 0.0, 0.0, 0.0, 0.0, 0.0, 0.0, 0.0, 0.0, 0.0, 1.7184699147659068E9, 0.0, 2024-06-15 11:45:14.765
207.0, 37172.426244309696, 45166.17002083898, 64893.39499394834, -187500.02235174447, -53905.277419719394, -187500.02235174447, -136448.61566407868, 13078.519770922634, -0.074, 0.964, 0.214, 192.0, 0.0, 0.0, 0.0, 0.0, 0.0, 0.0, 0.0, 0.0, 0.0, 1.718469914765916E9, 0.0, 2024-06-15 11:45:14.765
208.0, 37112.38945870274, 44885.7450349027, 65074.9582141588, -187500.02235174447, -53992.806851006375, -187500.02235174447, -136489.5640599208, 13086.119364037439, -0.074, 0.964, 0.214, 192.0, 0.0, 0.0, 0.0, 0.0, 0.0, 0.0, 0.0, 0.0, 0.0, 1.7184699147659254E9, 0.0, 2024-06-15 11:45:14.765
209.0, 37010.97959410901, 44569.512554349014, 63748.67275341425, -187500.02235174447, -53942.82835040431, -187500.02235174447, -136648.7978874204, 12532.399598646118, -0.074, 0.964, 0.214, 192.0, 0.0, 0.0, 0.0, 0.0, 0.0, 0.0, 0.0, 0.0, 0.0, 1.7184699147659347E9, 0.0, 2024-06-15 11:45:14.765
210.0, 37051.01156842847, 44756.6637106733, 63489.638386921695, -187500.02235174447, -53853.22020688298, -187500.02235174447, -136617.81836960535, 12562.261529238407, -0.074, 0.964, 0.214, 192.0, 0.0, 0.0, 0.0, 0.0, 0.0, 0.0, 0.0, 0.0, 0.0, 1.718469914842513E9, 0.0, 2024-06-15 11:45:14.842
211.0, 37151.929694644175, 45120.08072377214, 64672.06802035189, -187500.02235174447, -53874.27555015988, -187500.02235174447, -136451.4096321356, 13096.803497887076, -0.074, 0.964, 0.214, 192.0, 0.0, 0.0, 0.0, 0.0, 0.0, 0.0, 0.0, 0.0, 0.0, 1.7184699148425488E9, 0.0, 2024-06-15 11:45:14.842
212.0, 37135.12118281379, 44963.35029165153, 65290.31727198569, -187500.02235174447, -53958.3851645452, -187500.02235174447, -136421.48064630994, 13312.095500480593, -0.074, 0.964, 0.214, 192.0, 0.0, 0.0, 0.0, 0.0, 0.0, 0.0, 0.0, 0.0, 0.0, 1.7184699148425598E9, 0.0, 2024-06-15 11:45:14.842
213.0, 37034.2924635759, 44592.668961604715, 63979.38745968193, -187500.02235174447, -53923.67290540611, -187500.02235174447, -136588.20230820208, 12744.629412249258, -0.076, 0.96, 0.22, 192.0, 253.0, 160.0, 30.0, 0.0, 6.0, 224.0, 0.0, 0.0, 0.0, 1.718469914842569E9, 0.0, 2024-06-15 11:45:14.842
214.0, 37039.25455084498, 44699.28678265653, 63449.025267246405, -187500.02235174447, -53878.7682507954, -187500.02235174447, -136632.99520409052, 12617.291524087374, -0.076, 0.96, 0.22, 192.0, 0.0, 0.0, 0.0, 0.0, 0.0, 0.0, 0.0, 0.0, 0.0, 1.718469914842579E9, 0.0, 2024-06-15 11:45:14.842
215.0, 37134.83061013587, 45066.61535103504, 64365.513845147354, -187500.02235174447, -53925.17047228462, -187500.02235174447, -136538.1791041111, 13014.727892247189, -0.076, 0.96, 0.22, 192.0, 0.0, 0.0, 0.0, 0.0, 0.0, 0.0, 0.0, 0.0, 0.0, 1.718469914842588E9, 0.0, 2024-06-15 11:45:14.842
216.0, 37138.27277878199, 45023.8788156365, 65358.579499552194, -187500.02235174447, -54018.44430189661, -187500.02235174447, -136459.07628048377, 13380.93887340294, -0.076, 0.96, 0.22, 192.0, 0.0, 0.0, 0.0, 0.0, 0.0, 0.0, 0.0, 0.0, 0.0, 1.7184699148425972E9, 0.0, 2024-06-15 11:45:14.842
217.0, 37047.74821373799, 44617.83702586139, 64190.92436920695, -187500.02235174447, -53992.47157483955, -187500.02235174447, -136610.37523870173, 12849.25792804455, -0.076, 0.96, 0.22, 192.0, 0.0, 0.0, 0.0, 0.0, 0.0, 0.0, 0.0, 0.0, 0.0, 1.718469914842606E9, 0.0, 2024-06-15 11:45:14.842
218.0, 37054.699606263595, 44676.21978237865, 63466.79490408837, -187500.02235174447, -53915.693332635565, -187500.02235174447, -136656.3080735574, 12637.430445841605, -0.076, 0.96, 0.22, 192.0, 0.0, 0.0, 0.0, 0.0, 0.0, 0.0, 0.0, 0.0, 0.0, 1.7184699148426151E9, 0.0, 2024-06-15 11:45:14.842
219.0, 37152.62259872229, 45041.402583289455, 64143.44926398388, -187500.02235174447, -53909.054864532336, -187500.02235174447, -136565.38117711322, 12964.99526083413, -0.076, 0.96, 0.22, 192.0, 0.0, 0.0, 0.0, 0.0, 0.0, 0.0, 0.0, 0.0, 0.0, 1.7184699148426473E9, 0.0, 2024-06-15 11:45:14.842
220.0, 37163.21732559411, 45104.92624103144, 65388.68729933349, -187500.02235174447, -54020.23244145304, -187500.02235174447, -136469.82746956678, 13426.871708258595, -0.076, 0.96, 0.22, 192.0, 0.0, 0.0, 0.0, 0.0, 0.0, 0.0, 0.0, 0.0, 0.0, 1.7184699148426569E9, 0.0, 2024-06-15 11:45:14.842
221.0, 37063.57324881235, 44675.45982306717, 64462.90039573913, -187500.02235174447, -54010.576487848346, -187500.02235174447, -136600.42871241912, 12985.067127354996, -0.076, 0.96, 0.22, 192.0, 0.0, 0.0, 0.0, 0.0, 0.0, 0.0, 0.0, 0.0, 0.0, 1.718469914842666E9, 0.0, 2024-06-15 11:45:14.842
222.0, 37031.11851586324, 44627.31416551044, 63492.767631145434, -187500.02235174447, -53955.52414125492, -187500.02235174447, -136694.4177978537, 12645.745294778979, -0.076, 0.96, 0.22, 192.0, 0.0, 0.0, 0.0, 0.0, 0.0, 0.0, 0.0, 0.0, 0.0, 1.7184699148426752E9, 0.0, 2024-06-15 11:45:14.842
223.0, 37111.07070577988, 44953.22495141327, 63925.89973520038, -187500.02235174447, -53892.00048351294, -187500.02235174447, -136591.82329080385, 12935.714475597677, -0.08, 0.962, 0.222, 192.0, 253.0, 128.0, 30.0, 16.0, 6.0, 240.0, 0.0, 0.0, 0.0, 1.718469914842702E9, 0.0, 2024-06-15 11:45:14.842
224.0, 37155.34951154584, 45126.87565408655, 65346.64366801306, -187500.02235174447, -53950.13737084119, -187500.02235174447, -136431.49422782593, 13531.58963103171, -0.08, 0.962, 0.222, 192.0, 0.0, 0.0, 0.0, 0.0, 0.0, 0.0, 0.0, 0.0, 0.0, 1.7184699148427112E9, 0.0, 2024-06-15 11:45:14.842
225.0, 37060.01932144396, 44713.72600957465, 64753.47307365812, -187500.02235174447, -53969.89631293969, -187500.02235174447, -136539.85548494523, 13234.892575131962, -0.08, 0.962, 0.222, 192.0, 0.0, 0.0, 0.0, 0.0, 0.0, 0.0, 0.0, 0.0, 0.0, 1.7184699148734176E9, 0.0, 2024-06-15 11:45:14.873
226.0, 37019.36149827975, 44581.761310310525, 63581.839332799835, -187500.02235174447, -53928.61264093073, -187500.02235174447, -136676.268181356, 12774.267825396995, -0.08, 0.962, 0.222, 192.0, 0.0, 0.0, 0.0, 0.0, 0.0, 0.0, 0.0, 0.0, 0.0, 1.7184699148734508E9, 0.0, 2024-06-15 11:45:14.873
227.0, 37107.49442666703, 44881.14057554491, 63747.35400049139, -187500.02235174447, -53863.054974443316, -187500.02235174447, -136612.498654425, 12952.366525216881, -0.08, 0.962, 0.222, 192.0, 0.0, 0.0, 0.0, 0.0, 0.0, 0.0, 0.0, 0.0, 0.0, 1.7184699149366066E9, 0.0, 2024-06-15 11:45:14.936
228.0, 37185.88199447179, 45165.07478536067, 65151.62469764051, -187500.02235174447, -53956.462914522046, -187500.02235174447, -136488.15590002012, 13518.312694825256, -0.08, 0.962, 0.222, 192.0, 0.0, 0.0, 0.0, 0.0, 0.0, 0.0, 0.0, 0.0, 0.0, 1.7184699149366665E9, 0.0, 2024-06-15 11:45:14.936
229.0, 37097.72671434006, 44801.85893796193, 64954.6834772448, -187500.02235174447, -54038.96320330659, -187500.02235174447, -136589.76693031396, 13360.26350978178, -0.08, 0.962, 0.222, 192.0, 0.0, 0.0, 0.0, 0.0, 0.0, 0.0, 0.0, 0.0, 0.0, 1.71846991493668E9, 0.0, 2024-06-15 11:45:14.936
230.0, 37024.52475124893, 44571.79243228346, 63638.29983929394, -187500.02235174447, -54018.31019142988, -187500.02235174447, -136760.9812928416, 12805.068529256409, -0.08, 0.962, 0.222, 192.0, 0.0, 0.0, 0.0, 0.0, 0.0, 0.0, 0.0, 0.0, 0.0, 1.718469914936691E9, 0.0, 2024-06-15 11:45:14.936
231.0, 37068.49063259252, 44804.49644380766, 63583.76158282299, -187500.02235174447, -53910.9771145555, -187500.02235174447, -136686.75114950552, 12939.782493088544, -0.08, 0.962, 0.222, 192.0, 0.0, 0.0, 0.0, 0.0, 0.0, 0.0, 0.0, 0.0, 0.0, 1.7184699149367027E9, 0.0, 2024-06-15 11:45:14.936
232.0, 37165.67601748419, 45146.70165141841, 64922.94400011826, -187500.02235174447, -53936.43575149009, -187500.02235174447, -136520.49887424696, 13549.314564384767, -0.08, 0.962, 0.222, 192.0, 0.0, 0.0, 0.0, 0.0, 0.0, 0.0, 0.0, 0.0, 0.0, 1.7184699149367132E9, 0.0, 2024-06-15 11:45:14.936
233.0, 37119.18438901715, 44889.924811115845, 65198.31749180764, -187500.02235174447, -54005.189717434616, -187500.02235174447, -136545.44342105908, 13631.524280491387, -0.08600000000000001, 0.9560000000000001, 0.22, 192.0, 253.0, 80.0, 29.0, 224.0, 6.0, 224.0, 0.0, 0.0, 0.0, 1.7184699149367232E9, 0.0, 2024-06-15 11:45:14.936
234.0, 37029.866818173745, 44565.71275779161, 63827.44030087475, -187500.02235174447, -53977.0935746543, -187500.02235174447, -136723.60917611234, 13049.462503130735, -0.08600000000000001, 0.9560000000000001, 0.22, 192.0, 0.0, 0.0, 0.0, 0.0, 0.0, 0.0, 0.0, 0.0, 0.0, 1.7184699149367344E9, 0.0, 2024-06-15 11:45:14.936
235.0, 37049.08931840531, 44735.65307088531, 63531.07852114183, -187500.02235174447, -53862.27266338738, -187500.02235174447, -136678.14572789022, 13083.101878535972, -0.08600000000000001, 0.9560000000000001, 0.22, 192.0, 0.0, 0.0, 0.0, 0.0, 0.0, 0.0, 0.0, 0.0, 0.0, 1.718469914936744E9, 0.0, 2024-06-15 11:45:14.936
236.0, 37154.366034789804, 45114.40338068049, 64684.56264550241, -187500.02235174447, -53861.04331744234, -187500.02235174447, -136522.68934520357, 13631.501928746931, -0.08600000000000001, 0.9560000000000001, 0.22, 192.0, 0.0, 0.0, 0.0, 0.0, 0.0, 0.0, 0.0, 0.0, 0.0, 1.7184699149367535E9, 0.0, 2024-06-15 11:45:14.936
237.0, 37126.91809259869, 44966.43483238636, 65359.719438519416, -187500.02235174447, -53958.765144200945, -187500.02235174447, -136511.96050786503, 13878.332242766886, -0.08600000000000001, 0.9560000000000001, 0.22, 192.0, 0.0, 0.0, 0.0, 0.0, 0.0, 0.0, 0.0, 0.0, 0.0, 1.7184699149367657E9, 0.0, 2024-06-15 11:45:14.936
238.0, 37047.52469629344, 44595.28411570598, 64030.662361462404, -187500.02235174447, -53946.382277772704, -187500.02235174447, -136696.7647310215, 13284.446392589378, -0.08600000000000001, 0.9560000000000001, 0.22, 192.0, 0.0, 0.0, 0.0, 0.0, 0.0, 0.0, 0.0, 0.0, 0.0, 1.7184699149367805E9, 0.0, 2024-06-15 11:45:14.936
239.0, 37069.652923304195, 44713.27897468555, 63472.09226752428, -187500.02235174447, -53877.0695182168, -187500.02235174447, -136724.30208019045, 13163.188178919338, -0.08600000000000001, 0.9560000000000001, 0.22, 192.0, 0.0, 0.0, 0.0, 0.0, 0.0, 0.0, 0.0, 0.0, 0.0, 1.7184699149745913E9, 0.0, 2024-06-15 11:45:14.974
240.0, 37143.72660442908, 45064.78250798971, 64395.21931352846, -187500.02235174447, -53839.4068288096, -187500.02235174447, -136575.75238654047, 13644.644754486651, -0.08600000000000001, 0.9560000000000001, 0.22, 192.0, 0.0, 0.0, 0.0, 0.0, 0.0, 0.0, 0.0, 0.0, 0.0, 1.71846991497461E9, 0.0, 2024-06-15 11:45:14.974
241.0, 37155.640084223756, 45045.87293218052, 65467.11957062717, -187500.02235174447, -53903.4222249296, -187500.02235174447, -136478.2764289709, 14090.629111603394, -0.08600000000000001, 0.9560000000000001, 0.22, 192.0, 0.0, 0.0, 0.0, 0.0, 0.0, 0.0, 0.0, 0.0, 0.0, 1.7184699149746366E9, 0.0, 2024-06-15 11:45:14.974
242.0, 37071.64222856072, 44629.147008555774, 64297.072803625204, -187500.02235174447, -53906.28324821988, -187500.02235174447, -136654.96696889008, 13550.4992068409, -0.08600000000000001, 0.9560000000000001, 0.22, 192.0, 0.0, 0.0, 0.0, 0.0, 0.0, 0.0, 0.0, 0.0, 0.0, 1.7184699149746463E9, 0.0, 2024-06-15 11:45:14.974
243.0, 37049.2457806165, 44647.944825642684, 63492.27589276742, -187500.02235174447, -53852.03556442685, -187500.02235174447, -136723.94445227916, 13302.931285253917, -0.08600000000000001, 0.9560000000000001, 0.22, 192.0, 0.0, 0.0, 0.0, 0.0, 0.0, 0.0, 0.0, 0.0, 0.0, 1.718469914974676E9, 0.0, 2024-06-15 11:45:14.974
244.0, 37134.048299079936, 44997.59316415706, 64160.414238025456, -187500.02235174447, -53773.02214777734, -187500.02235174447, -136576.11001445175, 13712.415243675143, -0.09, 0.9520000000000001, 0.226, 192.0, 253.0, 48.0, 29.0, 192.0, 7.0, 16.0, 0.0, 0.0, 0.0, 1.7184699149746857E9, 0.0, 2024-06-15 11:45:14.974
1.0, 37200.90236674576, 45160.91736089198, 64930.63300021089, -187500.02235174447, -53845.95588993501, -187500.02235174447, -136559.0332816879, 14476.643738346547, -0.09, 0.9520000000000001, 0.226, 192.0, 0.0, 0.0, 0.0, 0.0, 0.0, 0.0, 0.0, 0.0, 0.0, 1.7184699150367112E9, 0.0, 2024-06-15 11:45:15.036
6.0, 37145.00065386303, 44973.18505921186, 65438.46463423546, -187500.02235174447, -53968.91283618365, -187500.02235174447, -136559.21209564354, 14677.071830877285, -0.09, 0.9520000000000001, 0.226, 192.0, 0.0, 0.0, 0.0, 0.0, 0.0, 0.0, 0.0, 0.0, 0.0, 1.7184699150367332E9, 0.0, 2024-06-15 11:45:15.036
247.0, 37022.75896343696, 44587.10337723534, 63541.941468947116, -187500.02235174447, -53824.16293909108, -187500.02235174447, -136703.69377180265, 13495.491563736388, -0.09, 0.9520000000000001, 0.226, 192.0, 0.0, 0.0, 0.0, 0.0, 0.0, 0.0, 0.0, 0.0, 0.0, 1.7184699150367453E9, 0.0, 2024-06-15 11:45:15.036
248.0, 37131.72371765658, 44937.84695122802, 63926.704398000766, -187500.02235174447, -53758.09118248119, -187500.02235174447, -136611.31401196888, 13787.382994578242, -0.09, 0.9520000000000001, 0.226, 192.0, 0.0, 0.0, 0.0, 0.0, 0.0, 0.0, 0.0, 0.0, 0.0, 1.7184699150367568E9, 0.0, 2024-06-15 11:45:15.036
255.0, 37040.43919330111, 44572.15006019474, 63764.9001198888, -187500.02235174447, -53850.247424870424, -187500.02235174447, -136721.12813247778, 13867.022260072501, -0.09, 0.9520000000000001, 0.226, 192.0, 0.0, 0.0, 0.0, 0.0, 0.0, 0.0, 0.0, 0.0, 0.0, 1.718469915036769E9, 0.0, 2024-06-15 11:45:15.036
4.0, 37084.04744673341, 44740.19047500974, 63532.95606767608, -187500.02235174447, -53896.49318414846, -187500.02235174447, -136776.89573489377, 13877.281710777488, -0.09, 0.9520000000000001, 0.226, 192.0, 0.0, 0.0, 0.0, 0.0, 0.0, 0.0, 0.0, 0.0, 0.0, 1.7184699150368E9, 0.0, 2024-06-15 11:45:15.036
251.0, 37034.11364962025, 44583.080063233385, 63612.48357444806, -187500.02235174447, -53864.35137562172, -187500.02235174447, -136745.55858916743, 13655.306536591834, -0.09, 0.9520000000000001, 0.226, 192.0, 0.0, 0.0, 0.0, 0.0, 0.0, 0.0, 0.0, 0.0, 0.0, 1.7184699150368106E9, 0.0, 2024-06-15 11:45:15.036
252.0, 37101.21358647509, 44869.852944594975, 63735.641686396804, -187500.02235174447, -53784.823868849744, -187500.02235174447, -136674.256524355, 13855.108780277824, -0.09, 0.9520000000000001, 0.226, 192.0, 0.0, 0.0, 0.0, 0.0, 0.0, 0.0, 0.0, 0.0, 0.0, 1.7184699150368207E9, 0.0, 2024-06-15 11:45:15.036
2.0, 37143.88306664027, 44914.44467478331, 65301.73901340235, -187500.02235174447, -53933.35121075526, -187500.02235174447, -136572.71254929455, 14570.632823781112, -0.09, 0.9520000000000001, 0.226, 192.0, 0.0, 0.0, 0.0, 0.0, 0.0, 0.0, 0.0, 0.0, 0.0, 1.7184699150368304E9, 0.0, 2024-06-15 11:45:15.036
7.0, 37077.58779258583, 44597.72045585161, 64165.21986308335, -187500.02235174447, -53934.982888100494, -187500.02235174447, -136705.37015263678, 14096.865248306423, -0.09, 0.9520000000000001, 0.226, 192.0, 0.0, 0.0, 0.0, 0.0, 0.0, 0.0, 0.0, 0.0, 0.0, 1.7184699150368397E9, 0.0, 2024-06-15 11:45:15.036
8.0, 37121.62072916278, 44719.55981487749, 63534.18541362112, -187500.02235174447, -53905.61269588622, -187500.02235174447, -136761.07069981942, 13889.955149883646, -0.08, 0.966, 0.214, 192.0, 253.0, 128.0, 30.0, 48.0, 6.0, 176.0, 0.0, 0.0, 0.0, 1.7184699150368648E9, 0.0, 2024-06-15 11:45:15.036
9.0, 37208.479608116104, 45088.16243268996, 64347.855967027666, -187500.02235174447, -53947.16458882864, -187500.02235174447, -136689.38865535124, 14233.72497960627, -0.08, 0.966, 0.214, 192.0, 0.0, 0.0, 0.0, 0.0, 0.0, 0.0, 0.0, 0.0, 0.0, 1.7184699150368743E9, 0.0, 2024-06-15 11:45:15.036
10.0, 37196.119093432324, 45065.98950219029, 65480.240044622435, -187500.02235174447, -54037.30917421689, -187500.02235174447, -136592.87382279325, 14651.054400331308, -0.08, 0.966, 0.214, 192.0, 0.0, 0.0, 0.0, 0.0, 0.0, 0.0, 0.0, 0.0, 0.0, 1.7184699150757883E9, 0.0, 2024-06-15 11:45:15.075
11.0, 37116.36806921579, 44650.91760765525, 64377.85200808669, -187500.02235174447, -54040.81839809637, -187500.02235174447, -136747.99492931308, 14096.865248306423, -0.08, 0.966, 0.214, 192.0, 0.0, 0.0, 0.0, 0.0, 0.0, 0.0, 0.0, 0.0, 0.0, 1.7184699150758293E9, 0.0, 2024-06-15 11:45:15.075
12.0, 37117.57506341637, 44683.10411967088, 63506.402195263174, -187500.02235174447, -54030.335429946834, -187500.02235174447, -136849.49420088463, 13733.738807885506, -0.08, 0.966, 0.214, 192.0, 0.0, 0.0, 0.0, 0.0, 0.0, 0.0, 0.0, 0.0, 0.0, 1.7184699150758452E9, 0.0, 2024-06-15 11:45:15.075
13.0, 37198.756599278044, 45031.85838840704, 64105.69716759887, -187500.02235174447, -53977.58531303231, -187500.02235174447, -136718.60238535434, 14033.363942308897, -0.08, 0.966, 0.214, 192.0, 0.0, 0.0, 0.0, 0.0, 0.0, 0.0, 0.0, 0.0, 0.0, 1.7184699150758617E9, 0.0, 2024-06-15 11:45:15.075
14.0, 37241.67194863224, 45158.369262024076, 65451.33923904172, -187500.02235174447, -54076.625892713775, -187500.02235174447, -136592.67265709315, 14532.8807273961, -0.08, 0.966, 0.214, 192.0, 0.0, 0.0, 0.0, 0.0, 0.0, 0.0, 0.0, 0.0, 0.0, 1.7184699150758784E9, 0.0, 2024-06-15 11:45:15.075
15.0, 37145.33593002986, 44723.180797479254, 64646.38586597275, -187500.02235174447, -54106.957209939625, -187500.02235174447, -136725.68788834667, 14101.603818130949, -0.08, 0.966, 0.214, 192.0, 0.0, 0.0, 0.0, 0.0, 0.0, 0.0, 0.0, 0.0, 0.0, 1.7184699150758927E9, 0.0, 2024-06-15 11:45:15.075
23.0, 37195.8285207544, 44886.25912502517, 65153.88222383049, -187500.02235174447, -54298.48930817715, -187500.02235174447, -136736.55083615196, 14091.232608703687, -0.08, 0.966, 0.214, 192.0, 0.0, 0.0, 0.0, 0.0, 0.0, 0.0, 0.0, 0.0, 0.0, 1.7184699152671628E9, 0.0, 2024-06-15 11:45:15.267
17.0, 37197.01316321053, 44970.65931208841, 63867.62873740539, -187500.02235174447, -54077.3635002808, -187500.02235174447, -136796.29704908098, 13789.43935506813, -0.08, 0.966, 0.214, 192.0, 0.0, 0.0, 0.0, 0.0, 0.0, 0.0, 0.0, 0.0, 0.0, 1.718469915267198E9, 0.0, 2024-06-15 11:45:15.267
18.0, 37259.32982675193, 45205.46438759141, 65298.92269360098, -187500.02235174447, -54179.890952097296, -187500.02235174447, -136663.43828003865, 14304.959989185332, -0.076, 0.978, 0.20400000000000001, 192.0, 253.0, 160.0, 30.0, 144.0, 6.0, 96.0, 0.0, 0.0, 0.0, 1.7184699152672212E9, 0.0, 2024-06-15 11:45:15.267
19.0, 37178.66238101273, 44817.86278699193, 64900.547552174045, -187500.02235174447, -54224.281516585535, -187500.02235174447, -136749.4254409582, 14038.326029577975, -0.076, 0.978, 0.20400000000000001, 192.0, 0.0, 0.0, 0.0, 0.0, 0.0, 0.0, 0.0, 0.0, 0.0, 1.7184699152672417E9, 0.0, 2024-06-15 11:45:15.267
24.0, 37123.341813485844, 44619.89338635128, 63828.893164264344, -187500.02235174447, -54262.70416530421, -187500.02235174447, -136885.39110247983, 13533.377770588133, -0.076, 0.978, 0.20400000000000001, 192.0, 0.0, 0.0, 0.0, 0.0, 0.0, 0.0, 0.0, 0.0, 0.0, 1.718469915267262E9, 0.0, 2024-06-15 11:45:15.267
31.0, 37255.686492405715, 45055.953568929865, 65470.449980551006, -187500.02235174447, -54468.54137999313, -187500.02235174447, -136747.39143221278, 14516.16162254353, -0.076, 0.978, 0.20400000000000001, 192.0, 0.0, 0.0, 0.0, 0.0, 0.0, 0.0, 0.0, 0.0, 0.0, 1.718469915267284E9, 0.0, 2024-06-15 11:45:15.267
26.0, 37271.28801003552, 45195.58491654217, 64892.67973812577, -187500.02235174447, -54271.91308401979, -187500.02235174447, -136720.07760048838, 14120.60280091796, -0.076, 0.978, 0.20400000000000001, 192.0, 0.0, 0.0, 0.0, 0.0, 0.0, 0.0, 0.0, 0.0, 0.0, 1.7184699152672975E9, 0.0, 2024-06-15 11:45:15.267
27.0, 37234.85466657337, 44988.563059397115, 65393.00118601337, -187500.02235174447, -54332.352201026944, -187500.02235174447, -136684.18069889315, 14319.063939936632, -0.076, 0.978, 0.20400000000000001, 192.0, 0.0, 0.0, 0.0, 0.0, 0.0, 0.0, 0.0, 0.0, 0.0, 1.7184699152673185E9, 0.0, 2024-06-15 11:45:15.267
28.0, 37147.05701435292, 44635.60666270336, 64030.930582395864, -187500.02235174447, -54325.311401523526, -187500.02235174447, -136869.6107708944, 13741.606621933774, -0.076, 0.978, 0.20400000000000001, 192.0, 0.0, 0.0, 0.0, 0.0, 0.0, 0.0, 0.0, 0.0, 0.0, 1.7184699152673376E9, 0.0, 2024-06-15 11:45:15.267
29.0, 37172.78387222098, 44779.328379550985, 63566.77425703696, -187500.02235174447, -54319.29878226505, -187500.02235174447, -136923.85845468743, 13657.228786614989, -0.094, 0.96, 0.212, 192.0, 253.0, 16.0, 30.0, 0.0, 6.0, 160.0, 0.0, 0.0, 0.0, 1.718469915267351E9, 0.0, 2024-06-15 11:45:15.267
32.0, 37153.44961326714, 44644.30149129647, 64214.61721832958, -187500.02235174447, -54475.71628996328, -187500.02235174447, -136931.30158559105, 13984.972415563157, -0.094, 0.96, 0.212, 192.0, 0.0, 0.0, 0.0, 0.0, 0.0, 0.0, 0.0, 0.0, 0.0, 1.7184699152673745E9, 0.0, 2024-06-15 11:45:15.267
33.0, 37147.05701435292, 44714.26245144158, 63547.19412889411, -187500.02235174447, -54433.31503073157, -187500.02235174447, -136981.23538270418, 13850.54902440894, -0.094, 0.96, 0.212, 192.0, 0.0, 0.0, 0.0, 0.0, 0.0, 0.0, 0.0, 0.0, 0.0, 1.71846991526739E9, 0.0, 2024-06-15 11:45:15.267
34.0, 37255.127698794335, 45102.512252630266, 64350.582879851216, -187500.02235174447, -54416.68533285682, -187500.02235174447, -136845.49323862712, 14310.88320146599, -0.094, 0.96, 0.212, 192.0, 0.0, 0.0, 0.0, 0.0, 0.0, 0.0, 0.0, 0.0, 0.0, 1.7184699152674088E9, 0.0, 2024-06-15 11:45:15.267
35.0, 37274.908992637276, 45139.482037959344, 65545.35067622074, -187500.02235174447, -54512.730778781275, -187500.02235174447, -136734.89680706226, 14838.898460733708, -0.094, 0.96, 0.212, 192.0, 0.0, 0.0, 0.0, 0.0, 0.0, 0.0, 0.0, 0.0, 0.0, 1.7184699152674265E9, 0.0, 2024-06-15 11:45:15.267
36.0, 37171.80039546495, 44700.94081174622, 64504.0723090258, -187500.02235174447, -54522.789063786164, -187500.02235174447, -136891.5154804606, 14400.536048476226, -0.094, 0.96, 0.212, 192.0, 0.0, 0.0, 0.0, 0.0, 0.0, 0.0, 0.0, 0.0, 0.0, 1.7184699152674432E9, 0.0, 2024-06-15 11:45:15.267
37.0, 37152.93552314467, 44692.51420408657, 63611.72361513658, -187500.02235174447, -54476.431545785854, -187500.02235174447, -136972.2276296887, 14152.029353622122, -0.094, 0.96, 0.212, 192.0, 0.0, 0.0, 0.0, 0.0, 0.0, 0.0, 0.0, 0.0, 0.0, 1.7184699152674627E9, 0.0, 2024-06-15 11:45:15.267
