%OpenBCI Raw EXG Data
%Number of channels = 8
%Sample Rate = 250 Hz
%Board = OpenBCI_GUI$BoardCytonSerial
Sample Index, EXG Channel 0, EXG Channel 1, EXG Channel 2, EXG Channel 3, EXG Channel 4, EXG Channel 5, EXG Channel 6, EXG Channel 7, Accel Channel 0, Accel Channel 1, Accel Channel 2, Other, Other, Other, Other, Other, Other, Other, Analog Channel 0, Analog Channel 1, Analog Channel 2, Timestamp, Other, Timestamp (Formatted)
228.0, 48510.03569484183, 69415.06349027914, 13537.691657268007, -187500.02235174447, 74777.04581940721, -187500.02235174447, -167009.90998863103, -187500.02235174447, 0.0, 0.0, 0.0, 192.0, 0.0, 0.0, 0.0, 0.0, 0.0, 0.0, 0.0, 0.0, 0.0, 1.7184688110175776E9, 0.0, 2024-06-15 11:26:51.017
229.0, 48390.29739979475, 69298.63325341145, 16246.432512573305, -187500.02235174447, 74547.78397652913, -187500.02235174447, -166735.16234578638, -187500.02235174447, 0.0, 0.0, 0.0, 192.0, 0.0, 0.0, 0.0, 0.0, 0.0, 0.0, 0.0, 0.0, 0.0, 1.718468811017594E9, 0.0, 2024-06-15 11:26:51.017
230.0, 48564.43984084605, 69490.79120049372, 14927.076092609894, -187500.02235174447, 74730.12950779551, -187500.02235174447, -166878.50408297827, -187500.02235174447, 0.0, 0.0, 0.0, 192.0, 0.0, 0.0, 0.0, 0.0, 0.0, 0.0, 0.0, 0.0, 0.0, 1.7184688110176055E9, 0.0, 2024-06-15 11:26:51.017
231.0, 48818.8697479808, 69760.10736943572, 11481.197056913026, -187500.02235174447, 74969.0920077672, -187500.02235174447, -167271.04541910236, -187500.02235174447, -0.188, 0.966, 0.048, 192.0, 250.0, 32.0, 30.0, 48.0, 1.0, 128.0, 0.0, 0.0, 0.0, 1.718468811017618E9, 0.0, 2024-06-15 11:26:51.017
232.0, 48566.20562865801, 69469.48998802781, 12891.234504131617, -187500.02235174447, 74831.5617241337, -187500.02235174447, -167083.08959997768, -187500.02235174447, -0.188, 0.966, 0.048, 192.0, 0.0, 0.0, 0.0, 0.0, 0.0, 0.0, 0.0, 0.0, 0.0, 1.7184688110176284E9, 0.0, 2024-06-15 11:26:51.017
233.0, 48396.53353649778, 69301.71779414629, 16050.541824166994, -187500.02235174447, 74540.49730783669, -187500.02235174447, -166762.49852925522, -187500.02235174447, -0.188, 0.966, 0.048, 192.0, 0.0, 0.0, 0.0, 0.0, 0.0, 0.0, 0.0, 0.0, 0.0, 1.7184688110176387E9, 0.0, 2024-06-15 11:26:51.017
234.0, 48496.87051735765, 69421.45608919337, 15508.489669381343, -187500.02235174447, 74661.46494882881, -187500.02235174447, -166801.72584077428, -187500.02235174447, -0.188, 0.966, 0.048, 192.0, 0.0, 0.0, 0.0, 0.0, 0.0, 0.0, 0.0, 0.0, 0.0, 1.7184688110176487E9, 0.0, 2024-06-15 11:26:51.017
235.0, 48829.19625391916, 69780.04512548985, 11914.798547601527, -187500.02235174447, 74951.34472266969, -187500.02235174447, -167230.5664098938, -187500.02235174447, -0.188, 0.966, 0.048, 192.0, 0.0, 0.0, 0.0, 0.0, 0.0, 0.0, 0.0, 0.0, 0.0, 1.7184688110176587E9, 0.0, 2024-06-15 11:26:51.017
236.0, 48640.21225454954, 69559.12048329359, 12276.226255443842, -187500.02235174447, 74920.6334257881, -187500.02235174447, -167183.85126398221, -187500.02235174447, -0.188, 0.966, 0.048, 192.0, 0.0, 0.0, 0.0, 0.0, 0.0, 0.0, 0.0, 0.0, 0.0, 1.7184688110176685E9, 0.0, 2024-06-15 11:26:51.017
237.0, 48372.19248678595, 69282.53999740363, 15745.552271074328, -187500.02235174447, 74549.59446783, -187500.02235174447, -166787.19720687834, -187500.02235174447, -0.188, 0.966, 0.048, 192.0, 0.0, 0.0, 0.0, 0.0, 0.0, 0.0, 0.0, 0.0, 0.0, 1.7184688110176792E9, 0.0, 2024-06-15 11:26:51.017
238.0, 48462.04649949628, 69382.63110907449, 15937.48670071205, -187500.02235174447, 74627.98203563476, -187500.02235174447, -166771.59568924853, -187500.02235174447, -0.188, 0.966, 0.048, 192.0, 0.0, 0.0, 0.0, 0.0, 0.0, 0.0, 0.0, 0.0, 0.0, 1.7184688110176897E9, 0.0, 2024-06-15 11:26:51.017
239.0, 48780.022416117485, 69725.32805506326, 12484.969196911956, -187500.02235174447, 74902.57321626821, -187500.02235174447, -167178.03981042383, -187500.02235174447, -0.188, 0.966, 0.048, 192.0, 0.0, 0.0, 0.0, 0.0, 0.0, 0.0, 0.0, 0.0, 0.0, 1.718468811017704E9, 0.0, 2024-06-15 11:26:51.017
240.0, 48684.40165333768, 69598.3254430682, 11809.81240389495, -187500.02235174447, 74939.43124287501, -187500.02235174447, -167225.55961913583, -187500.02235174447, -0.188, 0.966, 0.048, 192.0, 0.0, 0.0, 0.0, 0.0, 0.0, 0.0, 0.0, 0.0, 0.0, 1.718468811017714E9, 0.0, 2024-06-15 11:26:51.017
241.0, 48429.77058050282, 69326.52823049168, 15287.430916718355, -187500.02235174447, 74607.75370690272, -187500.02235174447, -166857.44873970136, -187500.02235174447, -0.19, 0.966, 0.046, 192.0, 250.0, 16.0, 30.0, 48.0, 1.0, 112.0, 0.0, 0.0, 0.0, 1.7184688110177236E9, 0.0, 2024-06-15 11:26:51.017
242.0, 48447.40610687806, 69354.870242461, 16211.429680756293, -187500.02235174447, 74617.94610237434, -187500.02235174447, -166782.9727271763, -187500.02235174447, -0.19, 0.966, 0.046, 192.0, 0.0, 0.0, 0.0, 0.0, 0.0, 0.0, 0.0, 0.0, 0.0, 1.7184688110177336E9, 0.0, 2024-06-15 11:26:51.017
243.0, 48716.677572331144, 69651.18731870501, 13171.123048200972, -187500.02235174447, 74859.68021865848, -187500.02235174447, -167109.30819622378, -187500.02235174447, -0.19, 0.966, 0.046, 192.0, 0.0, 0.0, 0.0, 0.0, 0.0, 0.0, 0.0, 0.0, 0.0, 1.7184688110177436E9, 0.0, 2024-06-15 11:26:51.017
244.0, 48760.934026352654, 69681.76450511986, 11478.045460944828, -187500.02235174447, 74993.16483654558, -187500.02235174447, -167292.52544552393, -187500.02235174447, -0.19, 0.966, 0.046, 192.0, 0.0, 0.0, 0.0, 0.0, 0.0, 0.0, 0.0, 0.0, 0.0, 1.7184688110177534E9, 0.0, 2024-06-15 11:26:51.017
245.0, 48472.79768857929, 69370.06942869061, 14737.019209506418, -187500.02235174447, 74680.82155952712, -187500.02235174447, -166939.12201394106, -187500.02235174447, -0.19, 0.966, 0.046, 192.0, 0.0, 0.0, 0.0, 0.0, 0.0, 0.0, 0.0, 0.0, 0.0, 1.7184688110177636E9, 0.0, 2024-06-15 11:26:51.017
246.0, 48449.32835690121, 69355.25022211674, 16354.346734803526, -187500.02235174447, 74605.71969815728, -187500.02235174447, -166804.02807045318, -187500.02235174447, -0.19, 0.966, 0.046, 192.0, 0.0, 0.0, 0.0, 0.0, 0.0, 0.0, 0.0, 0.0, 0.0, 1.7184688110177732E9, 0.0, 2024-06-15 11:26:51.017
247.0, 48685.720406260545, 69613.65873976455, 13852.135998265267, -187500.02235174447, 74834.55685789071, -187500.02235174447, -167074.86415801814, -187500.02235174447, -0.19, 0.966, 0.046, 192.0, 0.0, 0.0, 0.0, 0.0, 0.0, 0.0, 0.0, 0.0, 0.0, 1.7184688110177834E9, 0.0, 2024-06-15 11:26:51.017
248.0, 48790.84066043385, 69712.6546159571, 11312.977828142384, -187500.02235174447, 75015.89656065662, -187500.02235174447, -167354.03744626493, -187500.02235174447, -0.19, 0.966, 0.046, 192.0, 0.0, 0.0, 0.0, 0.0, 0.0, 0.0, 0.0, 0.0, 0.0, 1.7184688110178149E9, 0.0, 2024-06-15 11:26:51.017
249.0, 48459.766621561845, 69347.80709121312, 14123.84380386398, -187500.02235174447, 74722.46285944735, -187500.02235174447, -167011.40755550953, -187500.02235174447, -0.19, 0.966, 0.046, 192.0, 0.0, 0.0, 0.0, 0.0, 0.0, 0.0, 0.0, 0.0, 0.0, 1.718468811017826E9, 0.0, 2024-06-15 11:26:51.017
250.0, 48383.05543459123, 69273.44283741032, 16424.262991459727, -187500.02235174447, 74525.83456347401, -187500.02235174447, -166802.61991055252, -187500.02235174447, -0.19, 0.966, 0.046, 192.0, 0.0, 0.0, 0.0, 0.0, 0.0, 0.0, 0.0, 0.0, 0.0, 1.7184688110178409E9, 0.0, 2024-06-15 11:26:51.017
251.0, 48616.921736827106, 69539.3615411951, 14577.092477928696, -187500.02235174447, 74786.67942126744, -187500.02235174447, -167037.33557907768, -187500.02235174447, -0.19, 0.966, 0.046, 192.0, 0.0, 0.0, 0.0, 0.0, 0.0, 0.0, 0.0, 0.0, 0.0, 1.718468811017867E9, 0.0, 2024-06-15 11:26:51.017
252.0, 48788.761948199506, 69743.99176168344, 11410.677303156532, -187500.02235174447, 75083.57764286728, -187500.02235174447, -167194.1107146872, -187500.02235174447, -0.198, 0.97, 0.046, 192.0, 249.0, 208.0, 30.0, 80.0, 1.0, 112.0, 0.0, 0.0, 0.0, 1.718468811017877E9, 0.0, 2024-06-15 11:26:51.017
253.0, 48560.8635617332, 69426.55228692917, 13400.429594567966, -187500.02235174447, 74771.18966235992, -187500.02235174447, -166956.3105054272, -187500.02235174447, -0.198, 0.97, 0.046, 192.0, 0.0, 0.0, 0.0, 0.0, 0.0, 0.0, 0.0, 0.0, 0.0, 1.7184688110178876E9, 0.0, 2024-06-15 11:26:51.017
254.0, 48479.92789506053, 69329.59041948205, 16214.648331957858, -187500.02235174447, 74494.29625204757, -187500.02235174447, -167055.0828641752, -187500.02235174447, -0.198, 0.97, 0.046, 192.0, 0.0, 0.0, 0.0, 0.0, 0.0, 0.0, 0.0, 0.0, 0.0, 1.7184688110178988E9, 0.0, 2024-06-15 11:26:51.017
255.0, 48505.09595931721, 69428.65335090797, 15210.026825669627, -187500.02235174447, 74755.0964063521, -187500.02235174447, -167136.04088259232, -187500.02235174447, -0.198, 0.97, 0.046, 192.0, 0.0, 0.0, 0.0, 0.0, 0.0, 0.0, 0.0, 0.0, 0.0, 1.718468811017909E9, 0.0, 2024-06-15 11:26:51.017
0.0, 48719.35978166578, 69695.33201400423, 11744.74647578555, -187500.02235174447, 75064.77982578038, -187500.02235174447, -167110.26932123536, -187500.02235174447, -0.198, 0.97, 0.046, 192.0, 0.0, 0.0, 0.0, 0.0, 0.0, 0.0, 0.0, 0.0, 0.0, 1.7184688110179193E9, 0.0, 2024-06-15 11:26:51.017
1.0, 48617.18995776057, 69484.93504344643, 12744.584708760347, -187500.02235174447, 74841.03886378276, -187500.02235174447, -166972.89549981302, -187500.02235174447, -0.198, 0.97, 0.046, 192.0, 0.0, 0.0, 0.0, 0.0, 0.0, 0.0, 0.0, 0.0, 0.0, 1.7184688110179303E9, 0.0, 2024-06-15 11:26:51.017
2.0, 48477.33509270372, 69314.10066057452, 15958.139712588754, -187500.02235174447, 74475.81135938303, -187500.02235174447, -167077.38990514158, -187500.02235174447, -0.198, 0.97, 0.046, 192.0, 0.0, 0.0, 0.0, 0.0, 0.0, 0.0, 0.0, 0.0, 0.0, 1.7184688110179412E9, 0.0, 2024-06-15 11:26:51.017
3.0, 48476.79865083679, 69384.06162071963, 15693.517409982374, -187500.02235174447, 74692.22094919931, -187500.02235174447, -167164.47230153947, -187500.02235174447, -0.198, 0.97, 0.046, 192.0, 0.0, 0.0, 0.0, 0.0, 0.0, 0.0, 0.0, 0.0, 0.0, 1.7184688110179515E9, 0.0, 2024-06-15 11:26:51.017
4.0, 48688.40261559518, 69670.67803987004, 12211.383844778997, -187500.02235174447, 75035.34257833274, -187500.02235174447, -167136.46556573696, -187500.02235174447, -0.198, 0.97, 0.046, 192.0, 0.0, 0.0, 0.0, 0.0, 0.0, 0.0, 0.0, 0.0, 0.0, 1.7184688110179665E9, 0.0, 2024-06-15 11:26:51.017
5.0, 48643.52031272892, 69533.0136457698, 12195.13412655999, -187500.02235174447, 74899.08634413319, -187500.02235174447, -166998.89057861455, -187500.02235174447, -0.198, 0.97, 0.046, 192.0, 0.0, 0.0, 0.0, 0.0, 0.0, 0.0, 0.0, 0.0, 0.0, 1.7184688110179763E9, 0.0, 2024-06-15 11:26:51.017
6.0, 48483.41476719556, 69315.10648907501, 15607.642007785083, -187500.02235174447, 74448.40812068083, -187500.02235174447, -167105.50839966637, -187500.02235174447, -0.194, 0.968, 0.052000000000000005, 192.0, 249.0, 240.0, 30.0, 64.0, 1.0, 160.0, 0.0, 0.0, 0.0, 1.7184688110179863E9, 0.0, 2024-06-15 11:26:51.017
7.0, 48425.45669382295, 69337.68175097487, 16099.536848013026, -187500.02235174447, 74639.15790786242, -187500.02235174447, -167166.0592753958, -187500.02235174447, -0.194, 0.968, 0.052000000000000005, 192.0, 0.0, 0.0, 0.0, 0.0, 0.0, 0.0, 0.0, 0.0, 0.0, 1.7184688110179963E9, 0.0, 2024-06-15 11:26:51.017
8.0, 48598.05686450683, 69593.63157673259, 12863.563044495946, -187500.02235174447, 74992.02489757835, -187500.02235174447, -166999.73994490385, -187500.02235174447, -0.194, 0.968, 0.052000000000000005, 192.0, 0.0, 0.0, 0.0, 0.0, 0.0, 0.0, 0.0, 0.0, 0.0, 1.7184688110180063E9, 0.0, 2024-06-15 11:26:51.018
9.0, 48690.25781038497, 69586.05433536223, 11774.295481955467, -187500.02235174447, 74934.4915073504, -187500.02235174447, -166953.74005481484, -187500.02235174447, -0.194, 0.968, 0.052000000000000005, 192.0, 0.0, 0.0, 0.0, 0.0, 0.0, 0.0, 0.0, 0.0, 0.0, 1.7184688110180163E9, 0.0, 2024-06-15 11:26:51.018
10.0, 48545.66437550359, 69364.83912048806, 15103.833687762462, -187500.02235174447, 74515.8880371914, -187500.02235174447, -167142.38877801763, -187500.02235174447, -0.194, 0.968, 0.052000000000000005, 192.0, 0.0, 0.0, 0.0, 0.0, 0.0, 0.0, 0.0, 0.0, 0.0, 1.7184688110180264E9, 0.0, 2024-06-15 11:26:51.018
11.0, 48447.87549351162, 69336.81003294111, 16292.611216617968, -187500.02235174447, 74619.04133785264, -187500.02235174447, -167232.89099131717, -187500.02235174447, -0.194, 0.968, 0.052000000000000005, 192.0, 0.0, 0.0, 0.0, 0.0, 0.0, 0.0, 0.0, 0.0, 0.0, 1.718468811018036E9, 0.0, 2024-06-15 11:26:51.018
12.0, 48551.18525638405, 69537.2604772163, 13522.425415805033, -187500.02235174447, 74956.19505121649, -187500.02235174447, -167063.80004451275, -187500.02235174447, -0.194, 0.968, 0.052000000000000005, 192.0, 0.0, 0.0, 0.0, 0.0, 0.0, 0.0, 0.0, 0.0, 0.0, 1.7184688110180457E9, 0.0, 2024-06-15 11:26:51.018
13.0, 48722.51137763398, 69643.92300175704, 11471.116420163682, -187500.02235174447, 75016.45535426801, -187500.02235174447, -167018.4707067574, -187500.02235174447, -0.194, 0.968, 0.052000000000000005, 192.0, 0.0, 0.0, 0.0, 0.0, 0.0, 0.0, 0.0, 0.0, 0.0, 1.7184688110180552E9, 0.0, 2024-06-15 11:26:51.018
14.0, 48544.72560223647, 69364.68265827688, 14498.101413023642, -187500.02235174447, 74552.23197367573, -187500.02235174447, -167166.66277249609, -187500.02235174447, -0.194, 0.968, 0.052000000000000005, 192.0, 0.0, 0.0, 0.0, 0.0, 0.0, 0.0, 0.0, 0.0, 0.0, 1.7184688110180647E9, 0.0, 2024-06-15 11:26:51.018
15.0, 48412.11270238313, 69292.44182019733, 16376.407906580915, -187500.02235174447, 74532.7412525107, -187500.02235174447, -167274.35347728175, -187500.02235174447, -0.194, 0.968, 0.052000000000000005, 192.0, 0.0, 0.0, 0.0, 0.0, 0.0, 0.0, 0.0, 0.0, 0.0, 1.7184688110180764E9, 0.0, 2024-06-15 11:26:51.018
16.0, 48468.88613329961, 69450.15572907397, 14233.166185994887, -187500.02235174447, 74853.48878544435, -187500.02235174447, -167097.77469608485, -187500.02235174447, -0.194, 0.966, 0.052000000000000005, 192.0, 249.0, 240.0, 30.0, 48.0, 1.0, 160.0, 0.0, 0.0, 0.0, 1.7184688110180862E9, 0.0, 2024-06-15 11:26:51.018
17.0, 48681.16065039166, 69633.86471675214, 11495.591580342243, -187500.02235174447, 74998.01516509238, -187500.02235174447, -166976.78470334827, -187500.02235174447, -0.194, 0.966, 0.052000000000000005, 192.0, 0.0, 0.0, 0.0, 0.0, 0.0, 0.0, 0.0, 0.0, 0.0, 1.7184688110180962E9, 0.0, 2024-06-15 11:26:51.018
18.0, 48575.325140395784, 69396.71270808134, 13918.855955464358, -187500.02235174447, 74599.21534052078, -187500.02235174447, -167086.53176862383, -187500.02235174447, -0.194, 0.966, 0.052000000000000005, 192.0, 0.0, 0.0, 0.0, 0.0, 0.0, 0.0, 0.0, 0.0, 0.0, 1.7184688110181057E9, 0.0, 2024-06-15 11:26:51.018
19.0, 48416.068961151715, 69271.34177343152, 16398.782002780677, -187500.02235174447, 74459.60634465294, -187500.02235174447, -167219.41288941063, -187500.02235174447, -0.194, 0.966, 0.052000000000000005, 192.0, 0.0, 0.0, 0.0, 0.0, 0.0, 0.0, 0.0, 0.0, 0.0, 1.7184688110181155E9, 0.0, 2024-06-15 11:26:51.018
20.0, 48451.60823483566, 69403.4852866513, 14907.138336555761, -187500.02235174447, 74800.13517142955, -187500.02235174447, -167112.16921951406, -187500.02235174447, -0.194, 0.966, 0.052000000000000005, 192.0, 0.0, 0.0, 0.0, 0.0, 0.0, 0.0, 0.0, 0.0, 0.0, 1.7184688110181298E9, 0.0, 2024-06-15 11:26:51.018
21.0, 48677.87494395673, 69640.74905404438, 11670.538684193933, -187500.02235174447, 75040.75170049092, -187500.02235174447, -166992.922662845, -187500.02235174447, -0.194, 0.966, 0.052000000000000005, 192.0, 0.0, 0.0, 0.0, 0.0, 0.0, 0.0, 0.0, 0.0, 0.0, 1.7184688110181396E9, 0.0, 2024-06-15 11:26:51.018
22.0, 48607.08696926677, 69436.05177832267, 13293.230628160314, -187500.02235174447, 74701.72044059282, -187500.02235174447, -167051.439529829, -187500.02235174447, -0.194, 0.966, 0.052000000000000005, 192.0, 0.0, 0.0, 0.0, 0.0, 0.0, 0.0, 0.0, 0.0, 0.0, 1.7184688110181496E9, 0.0, 2024-06-15 11:26:51.018
23.0, 48451.63058658011, 69289.06670678458, 16219.968047138222, -187500.02235174447, 74460.76863536461, -187500.02235174447, -167240.28941873187, -187500.02235174447, -0.194, 0.966, 0.052000000000000005, 192.0, 0.0, 0.0, 0.0, 0.0, 0.0, 0.0, 0.0, 0.0, 0.0, 1.7184688110181592E9, 0.0, 2024-06-15 11:26:51.018
24.0, 48424.2273478779, 69353.6185447715, 15470.335241596133, -187500.02235174447, 74740.52306896723, -187500.02235174447, -167164.06997013927, -187500.02235174447, -0.194, 0.966, 0.052000000000000005, 192.0, 0.0, 0.0, 0.0, 0.0, 0.0, 0.0, 0.0, 0.0, 0.0, 1.7184688110181687E9, 0.0, 2024-06-15 11:26:51.018
25.0, 48662.54164726039, 69636.52457434233, 12032.681647858817, -187500.02235174447, 75046.1161191602, -187500.02235174447, -167039.63780875658, -187500.02235174447, -0.194, 0.966, 0.052000000000000005, 192.0, 0.0, 0.0, 0.0, 0.0, 0.0, 0.0, 0.0, 0.0, 0.0, 1.7184688110181785E9, 0.0, 2024-06-15 11:26:51.018
26.0, 48605.18707098807, 69460.63869722352, 12741.678981981157, -187500.02235174447, 74802.61621506407, -187500.02235174447, -166967.3522671881, -187500.02235174447, -0.188, 0.968, 0.048, 192.0, 250.0, 32.0, 30.0, 64.0, 1.0, 128.0, 0.0, 0.0, 0.0, 1.718468811018188E9, 0.0, 2024-06-15 11:26:51.018
27.0, 48473.959979290965, 69298.96852957828, 15960.710163201114, -187500.02235174447, 74460.79098710907, -187500.02235174447, -167123.702719653, -187500.02235174447, -0.188, 0.968, 0.048, 192.0, 0.0, 0.0, 0.0, 0.0, 0.0, 0.0, 0.0, 0.0, 0.0, 1.7184688110181975E9, 0.0, 2024-06-15 11:26:51.018
28.0, 48430.66465028103, 69320.87323914448, 15905.031967762945, -187500.02235174447, 74655.29586735915, -187500.02235174447, -167195.29535714333, -187500.02235174447, -0.188, 0.968, 0.048, 192.0, 0.0, 0.0, 0.0, 0.0, 0.0, 0.0, 0.0, 0.0, 0.0, 1.718468811018208E9, 0.0, 2024-06-15 11:26:51.018
29.0, 48647.901254642165, 69607.66847225052, 12525.939944498534, -187500.02235174447, 74995.82469413575, -187500.02235174447, -167208.4158311386, -187500.02235174447, -0.188, 0.968, 0.048, 192.0, 0.0, 0.0, 0.0, 0.0, 0.0, 0.0, 0.0, 0.0, 0.0, 1.7184688110182178E9, 0.0, 2024-06-15 11:26:51.018
30.0, 48581.98596024346, 69468.5512147607, 12289.637302117028, -187500.02235174447, 74927.36130086915, -187500.02235174447, -166989.94988083243, -187500.02235174447, -0.188, 0.968, 0.048, 192.0, 0.0, 0.0, 0.0, 0.0, 0.0, 0.0, 0.0, 0.0, 0.0, 1.7184688110182273E9, 0.0, 2024-06-15 11:26:51.018
31.0, 48487.95217131999, 69309.71971866128, 15622.885897503604, -187500.02235174447, 74534.66350253386, -187500.02235174447, -166948.71091231238, -187500.02235174447, -0.188, 0.968, 0.048, 192.0, 0.0, 0.0, 0.0, 0.0, 0.0, 0.0, 0.0, 0.0, 0.0, 1.718468811018237E9, 0.0, 2024-06-15 11:26:51.018
32.0, 48475.3904909361, 69330.84211717155, 16207.048738843054, -187500.02235174447, 74624.74103268875, -187500.02235174447, -167137.69491168202, -187500.02235174447, -0.188, 0.968, 0.048, 192.0, 0.0, 0.0, 0.0, 0.0, 0.0, 0.0, 0.0, 0.0, 0.0, 1.7184688110182471E9, 0.0, 2024-06-15 11:26:51.018
33.0, 48709.70382806109, 69613.12229789761, 13057.732648579198, -187500.02235174447, 74894.03484988629, -187500.02235174447, -167447.7136072771, -187500.02235174447, -0.188, 0.968, 0.048, 192.0, 0.0, 0.0, 0.0, 0.0, 0.0, 0.0, 0.0, 0.0, 0.0, 1.718468811018257E9, 0.0, 2024-06-15 11:26:51.018
34.0, 48674.96921717754, 69556.59473617014, 11840.791921710006, -187500.02235174447, 74977.71978112696, -187500.02235174447, -167532.67258795173, -187500.02235174447, -0.188, 0.968, 0.048, 192.0, 0.0, 0.0, 0.0, 0.0, 0.0, 0.0, 0.0, 0.0, 0.0, 1.718468811018267E9, 0.0, 2024-06-15 11:26:51.018
35.0, 48388.08457709367, 69248.58769757602, 15236.290125404612, -187500.02235174447, 74631.20068683632, -187500.02235174447, -167159.13023461465, -187500.02235174447, -0.188, 0.968, 0.048, 192.0, 0.0, 0.0, 0.0, 0.0, 0.0, 0.0, 0.0, 0.0, 0.0, 1.7184688110182765E9, 0.0, 2024-06-15 11:26:51.018
36.0, 48352.67941387647, 69227.55470604356, 16600.685310445468, -187500.02235174447, 74567.18529071633, -187500.02235174447, -167006.15489556253, -187500.02235174447, -0.188, 0.968, 0.048, 192.0, 0.0, 0.0, 0.0, 0.0, 0.0, 0.0, 0.0, 0.0, 0.0, 1.7184688110182877E9, 0.0, 2024-06-15 11:26:51.018
37.0, 48649.44352500958, 69549.97861981137, 13850.79489359795, -187500.02235174447, 74819.156505961, -187500.02235174447, -167289.39620130017, -187500.02235174447, -0.188, 0.964, 0.046, 192.0, 250.0, 32.0, 30.0, 32.0, 1.0, 112.0, 0.0, 0.0, 0.0, 1.7184688110182972E9, 0.0, 2024-06-15 11:26:51.018
38.0, 48741.46565693208, 69624.87931548111, 11661.30741373389, -187500.02235174447, 74998.23868253693, -187500.02235174447, -167537.6570269653, -187500.02235174447, -0.188, 0.964, 0.046, 192.0, 0.0, 0.0, 0.0, 0.0, 0.0, 0.0, 0.0, 0.0, 0.0, 1.7184688110183067E9, 0.0, 2024-06-15 11:26:51.018
39.0, 48401.942658655964, 69252.05221796659, 14711.806441760833, -187500.02235174447, 74669.69039078837, -187500.02235174447, -167152.42471127806, -187500.02235174447, -0.188, 0.964, 0.046, 192.0, 0.0, 0.0, 0.0, 0.0, 0.0, 0.0, 0.0, 0.0, 0.0, 1.7184688110183165E9, 0.0, 2024-06-15 11:26:51.018
40.0, 48341.70470734891, 69199.6373772189, 16738.059131867783, -187500.02235174447, 74540.02792120313, -187500.02235174447, -166948.01800823427, -187500.02235174447, -0.188, 0.964, 0.046, 192.0, 0.0, 0.0, 0.0, 0.0, 0.0, 0.0, 0.0, 0.0, 0.0, 1.7184688110183263E9, 0.0, 2024-06-15 11:26:51.018
41.0, 48585.606942845225, 69466.60661299308, 14591.285835657816, -187500.02235174447, 74773.64835425, -187500.02235174447, -167173.52475804387, -187500.02235174447, -0.188, 0.964, 0.046, 192.0, 0.0, 0.0, 0.0, 0.0, 0.0, 0.0, 0.0, 0.0, 0.0, 1.7184688110183363E9, 0.0, 2024-06-15 11:26:51.018
42.0, 48783.732805697065, 69664.55366188928, 11659.698088133107, -187500.02235174447, 75003.98308086194, -187500.02235174447, -167539.22164907714, -187500.02235174447, -0.188, 0.964, 0.046, 192.0, 0.0, 0.0, 0.0, 0.0, 0.0, 0.0, 0.0, 0.0, 0.0, 1.718468811018346E9, 0.0, 2024-06-15 11:26:51.018
43.0, 48458.47022038344, 69301.24840751271, 14050.641840772849, -187500.02235174447, 74748.54734522669, -187500.02235174447, -167236.48962217447, -187500.02235174447, -0.188, 0.964, 0.046, 192.0, 0.0, 0.0, 0.0, 0.0, 0.0, 0.0, 0.0, 0.0, 0.0, 1.7184688110183556E9, 0.0, 2024-06-15 11:26:51.018
44.0, 48338.24018695834, 69188.01447010213, 16682.06801200724, -187500.02235174447, 74514.74809822418, -187500.02235174447, -166956.44461589394, -187500.02235174447, -0.188, 0.964, 0.046, 192.0, 0.0, 0.0, 0.0, 0.0, 0.0, 0.0, 0.0, 0.0, 0.0, 1.7184688110183651E9, 0.0, 2024-06-15 11:26:51.018
45.0, 48513.36610476567, 69384.35219339754, 15258.038372759625, -187500.02235174447, 74699.66408010294, -187500.02235174447, -167087.47054189094, -187500.02235174447, -0.188, 0.964, 0.046, 192.0, 0.0, 0.0, 0.0, 0.0, 0.0, 0.0, 0.0, 0.0, 0.0, 1.7184688110183766E9, 0.0, 2024-06-15 11:26:51.018
46.0, 48777.22844806057, 69662.18437697702, 11909.858812076905, -187500.02235174447, 74949.62363834663, -187500.02235174447, -167469.01481974302, -187500.02235174447, -0.188, 0.964, 0.046, 192.0, 0.0, 0.0, 0.0, 0.0, 0.0, 0.0, 0.0, 0.0, 0.0, 1.7184688110183864E9, 0.0, 2024-06-15 11:26:51.018
47.0, 48523.26792755937, 69369.26476589021, 13446.228318956892, -187500.02235174447, 74816.29548267073, -187500.02235174447, -167255.1756805391, -187500.02235174447, -0.192, 0.97, 0.048, 192.0, 250.0, 0.0, 30.0, 80.0, 1.0, 128.0, 0.0, 0.0, 0.0, 1.7184688110183961E9, 0.0, 2024-06-15 11:26:51.018
48.0, 48372.594818186146, 69215.99885416018, 16532.22191717886, -187500.02235174447, 74531.86953447695, -187500.02235174447, -166935.81395576167, -187500.02235174447, -0.192, 0.97, 0.048, 192.0, 0.0, 0.0, 0.0, 0.0, 0.0, 0.0, 0.0, 0.0, 0.0, 1.7184688110184064E9, 0.0, 2024-06-15 11:26:51.018
49.0, 48501.63143892663, 69356.27840236168, 15813.993312596478, -187500.02235174447, 74695.79722831216, -187500.02235174447, -167029.15484060705, -187500.02235174447, -0.192, 0.97, 0.048, 192.0, 0.0, 0.0, 0.0, 0.0, 0.0, 0.0, 0.0, 0.0, 0.0, 1.718468811018416E9, 0.0, 2024-06-15 11:26:51.018
50.0, 48796.026265147484, 69672.37677244864, 12282.48474389133, -187500.02235174447, 74947.52257436783, -187500.02235174447, -167440.4716420736, -187500.02235174447, -0.192, 0.97, 0.048, 192.0, 0.0, 0.0, 0.0, 0.0, 0.0, 0.0, 0.0, 0.0, 0.0, 1.718468811018426E9, 0.0, 2024-06-15 11:26:51.018
51.0, 48610.707951868535, 69456.10129309908, 12798.340654175361, -187500.02235174447, 74914.7325652519, -187500.02235174447, -167363.29106846944, -187500.02235174447, -0.192, 0.97, 0.048, 192.0, 0.0, 0.0, 0.0, 0.0, 0.0, 0.0, 0.0, 0.0, 0.0, 1.7184688110184357E9, 0.0, 2024-06-15 11:26:51.018
52.0, 48349.594873141636, 69187.4333247463, 16219.118680848918, -187500.02235174447, 74552.76841554265, -187500.02235174447, -166955.79641530474, -187500.02235174447, -0.192, 0.97, 0.048, 192.0, 0.0, 0.0, 0.0, 0.0, 0.0, 0.0, 0.0, 0.0, 0.0, 1.7184688110184453E9, 0.0, 2024-06-15 11:26:51.018
53.0, 48451.47412436893, 69301.87425635746, 16277.590844344002, -187500.02235174447, 74642.57772476408, -187500.02235174447, -166952.46600538088, -187500.02235174447, -0.192, 0.97, 0.048, 192.0, 0.0, 0.0, 0.0, 0.0, 0.0, 0.0, 0.0, 0.0, 0.0, 1.7184688110184553E9, 0.0, 2024-06-15 11:26:51.018
54.0, 48780.581209728865, 69654.42832165102, 12811.774052593, -187500.02235174447, 74918.55471355376, -187500.02235174447, -167380.72542914457, -187500.02235174447, -0.192, 0.97, 0.048, 192.0, 0.0, 0.0, 0.0, 0.0, 0.0, 0.0, 0.0, 0.0, 0.0, 1.7184688110184648E9, 0.0, 2024-06-15 11:26:51.018
55.0, 48663.882751927704, 69510.55014259221, 12291.537200395727, -187500.02235174447, 74963.01233327536, -187500.02235174447, -167417.7175662181, -187500.02235174447, -0.192, 0.97, 0.048, 192.0, 0.0, 0.0, 0.0, 0.0, 0.0, 0.0, 0.0, 0.0, 0.0, 1.718468811018475E9, 0.0, 2024-06-15 11:26:51.018
56.0, 48371.20901002992, 69200.64320571937, 15778.029355767889, -187500.02235174447, 74602.25517776671, -187500.02235174447, -167000.00816583732, -187500.02235174447, -0.192, 0.97, 0.048, 192.0, 0.0, 0.0, 0.0, 0.0, 0.0, 0.0, 0.0, 0.0, 0.0, 1.7184688110184848E9, 0.0, 2024-06-15 11:26:51.018
57.0, 48392.420815518, 69226.72769149873, 16597.936045877464, -187500.02235174447, 74600.24352076573, -187500.02235174447, -166907.4495920479, -187500.02235174447, -0.188, 0.976, 0.056, 192.0, 250.0, 32.0, 30.0, 128.0, 1.0, 192.0, 0.0, 0.0, 0.0, 1.7184688110184948E9, 0.0, 2024-06-15 11:26:51.018
58.0, 48716.610517097775, 69575.83958814616, 13469.72000237942, -187500.02235174447, 74862.87651811559, -187500.02235174447, -167289.30679432236, -187500.02235174447, -0.188, 0.976, 0.056, 192.0, 0.0, 0.0, 0.0, 0.0, 0.0, 0.0, 0.0, 0.0, 0.0, 1.718468811018508E9, 0.0, 2024-06-15 11:26:51.018
59.0, 48714.91178451917, 69563.27790776228, 11932.612887932408, -187500.02235174447, 74990.23675802193, -187500.02235174447, -167467.8748807758, -187500.02235174447, -0.188, 0.976, 0.056, 192.0, 0.0, 0.0, 0.0, 0.0, 0.0, 0.0, 0.0, 0.0, 0.0, 1.7184688110185175E9, 0.0, 2024-06-15 11:26:51.018
60.0, 48410.81630120472, 69237.05419743707, 15242.861538274472, -187500.02235174447, 74662.71664651831, -187500.02235174447, -167059.8437857442, -187500.02235174447, -0.188, 0.976, 0.056, 192.0, 0.0, 0.0, 0.0, 0.0, 0.0, 0.0, 0.0, 0.0, 0.0, 1.7184688110185277E9, 0.0, 2024-06-15 11:26:51.018
61.0, 48390.409158517024, 69219.41867106184, 16764.680059514056, -187500.02235174447, 74588.64296539343, -187500.02235174447, -166902.75572571228, -187500.02235174447, -0.188, 0.976, 0.056, 192.0, 0.0, 0.0, 0.0, 0.0, 0.0, 0.0, 0.0, 0.0, 0.0, 1.7184688110185404E9, 0.0, 2024-06-15 11:26:51.018
62.0, 48638.91585337113, 69486.41025858048, 14174.537560288616, -187500.02235174447, 74806.77363953277, -187500.02235174447, -167190.5567873188, -187500.02235174447, -0.188, 0.976, 0.056, 192.0, 0.0, 0.0, 0.0, 0.0, 0.0, 0.0, 0.0, 0.0, 0.0, 1.7184688110185504E9, 0.0, 2024-06-15 11:26:51.018
63.0, 48731.8991103052, 69577.15834106902, 11798.010682822549, -187500.02235174447, 74977.98800206042, -187500.02235174447, -167448.6300287998, -187500.02235174447, -0.188, 0.976, 0.056, 192.0, 0.0, 0.0, 0.0, 0.0, 0.0, 0.0, 0.0, 0.0, 0.0, 1.718468811018561E9, 0.0, 2024-06-15 11:26:51.018
64.0, 48423.892071711074, 69245.72667428573, 14674.009641886907, -187500.02235174447, 74715.60087389957, -187500.02235174447, -167070.66203006054, -187500.02235174447, -0.188, 0.976, 0.056, 192.0, 0.0, 0.0, 0.0, 0.0, 0.0, 0.0, 0.0, 0.0, 0.0, 1.718468811018571E9, 0.0, 2024-06-15 11:26:51.018
65.0, 48380.73085316788, 69205.94056915528, 16838.172595283104, -187500.02235174447, 74573.93551754183, -187500.02235174447, -166855.77235886722, -187500.02235174447, -0.188, 0.976, 0.056, 192.0, 0.0, 0.0, 0.0, 0.0, 0.0, 0.0, 0.0, 0.0, 0.0, 1.7184688110185804E9, 0.0, 2024-06-15 11:26:51.018
66.0, 48585.539887611856, 69426.21701076234, 14869.050964003918, -187500.02235174447, 74775.79412171771, -187500.02235174447, -167086.0400302458, -187500.02235174447, -0.188, 0.976, 0.056, 192.0, 0.0, 0.0, 0.0, 0.0, 0.0, 0.0, 0.0, 0.0, 0.0, 1.7184688110185907E9, 0.0, 2024-06-15 11:26:51.018
67.0, 48775.4626602486, 69627.3827108601, 11807.510174216053, -187500.02235174447, 74993.7459819014, -187500.02235174447, -167459.6717905607, -187500.02235174447, -0.188, 0.962, 0.052000000000000005, 192.0, 250.0, 32.0, 30.0, 16.0, 1.0, 160.0, 0.0, 0.0, 0.0, 1.7184688110186005E9, 0.0, 2024-06-15 11:26:51.018
68.0, 48471.18836297851, 69291.65950914139, 14002.049148327013, -187500.02235174447, 74786.5006073118, -187500.02235174447, -167147.10499609768, -187500.02235174447, -0.188, 0.962, 0.052000000000000005, 192.0, 0.0, 0.0, 0.0, 0.0, 0.0, 0.0, 0.0, 0.0, 0.0, 1.7184688110186102E9, 0.0, 2024-06-15 11:26:51.018
69.0, 48361.35189072513, 69183.45471423324, 16750.08437038474, -187500.02235174447, 74545.81702301705, -187500.02235174447, -166854.3418472221, -187500.02235174447, -0.188, 0.962, 0.052000000000000005, 192.0, 0.0, 0.0, 0.0, 0.0, 0.0, 0.0, 0.0, 0.0, 0.0, 1.7184688110186205E9, 0.0, 2024-06-15 11:26:51.018
70.0, 48551.87816046216, 69397.69618483736, 15494.296311652222, -187500.02235174447, 74724.65333040396, -187500.02235174447, -167003.74090716135, -187500.02235174447, -0.188, 0.962, 0.052000000000000005, 192.0, 0.0, 0.0, 0.0, 0.0, 0.0, 0.0, 0.0, 0.0, 0.0, 1.7184688110186303E9, 0.0, 2024-06-15 11:26:51.018
71.0, 48821.90958522673, 69706.39612750961, 12041.197662496288, -187500.02235174447, 74982.12307478466, -187500.02235174447, -167433.02851116998, -187500.02235174447, -0.188, 0.962, 0.052000000000000005, 192.0, 0.0, 0.0, 0.0, 0.0, 0.0, 0.0, 0.0, 0.0, 0.0, 1.71846881101864E9, 0.0, 2024-06-15 11:26:51.018
72.0, 48559.65656753261, 69406.25690296375, 13337.241212992814, -187500.02235174447, 74871.75016066435, -187500.02235174447, -167226.74426159196, -187500.02235174447, -0.188, 0.962, 0.052000000000000005, 192.0, 0.0, 0.0, 0.0, 0.0, 0.0, 0.0, 0.0, 0.0, 0.0, 1.7184688110186503E9, 0.0, 2024-06-15 11:26:51.018
73.0, 48367.92330359499, 69198.40803127385, 16562.62028963808, -187500.02235174447, 74559.47393887925, -187500.02235174447, -166844.372969195, -187500.02235174447, -0.188, 0.962, 0.052000000000000005, 192.0, 0.0, 0.0, 0.0, 0.0, 0.0, 0.0, 0.0, 0.0, 0.0, 1.7184688110186603E9, 0.0, 2024-06-15 11:26:51.018
74.0, 48496.35642723518, 69319.84505889953, 16066.679783663725, -187500.02235174447, 74683.05673397264, -187500.02235174447, -166895.133780853, -187500.02235174447, -0.188, 0.962, 0.052000000000000005, 192.0, 0.0, 0.0, 0.0, 0.0, 0.0, 0.0, 0.0, 0.0, 0.0, 1.7184688110186708E9, 0.0, 2024-06-15 11:26:51.018
75.0, 48825.08353293938, 69668.55462414678, 12472.116943850155, -187500.02235174447, 74956.35151342768, -187500.02235174447, -167362.44170218013, -187500.02235174447, -0.188, 0.962, 0.052000000000000005, 192.0, 0.0, 0.0, 0.0, 0.0, 0.0, 0.0, 0.0, 0.0, 0.0, 1.7184688110186808E9, 0.0, 2024-06-15 11:26:51.018
76.0, 48632.232681778994, 69471.16636886196, 12734.101740610808, -187500.02235174447, 74929.86469624814, -187500.02235174447, -167290.40202980067, -187500.02235174447, -0.188, 0.962, 0.052000000000000005, 192.0, 0.0, 0.0, 0.0, 0.0, 0.0, 0.0, 0.0, 0.0, 0.0, 1.7184688110186908E9, 0.0, 2024-06-15 11:26:51.018
77.0, 48381.401405501536, 69247.69362779781, 16238.296477591573, -187500.02235174447, 74572.70617159679, -187500.02235174447, -166854.20773675534, -187500.02235174447, -0.188, 0.962, 0.052000000000000005, 192.0, 0.0, 0.0, 0.0, 0.0, 0.0, 0.0, 0.0, 0.0, 0.0, 1.7184688110187013E9, 0.0, 2024-06-15 11:26:51.018
78.0, 48482.85597358418, 69363.05098093164, 16501.376509830538, -187500.02235174447, 74639.53788751816, -187500.02235174447, -166828.0785474871, -187500.02235174447, -0.19, 0.96, 0.05, 192.0, 250.0, 16.0, 30.0, 0.0, 1.0, 144.0, 0.0, 0.0, 0.0, 1.718468811018711E9, 0.0, 2024-06-15 11:26:51.018
79.0, 48812.14187289976, 69648.86273728166, 13052.502340376657, -187500.02235174447, 74911.7821349838, -187500.02235174447, -167274.84521565976, -187500.02235174447, -0.19, 0.96, 0.05, 192.0, 0.0, 0.0, 0.0, 0.0, 0.0, 0.0, 0.0, 0.0, 0.0, 1.7184688110187232E9, 0.0, 2024-06-15 11:26:51.018
80.0, 48714.1965286966, 69508.65024431351, 12229.891089187991, -187500.02235174447, 74985.36407773067, -187500.02235174447, -167360.72061785706, -187500.02235174447, -0.19, 0.96, 0.05, 192.0, 0.0, 0.0, 0.0, 0.0, 0.0, 0.0, 0.0, 0.0, 0.0, 1.7184688110187335E9, 0.0, 2024-06-15 11:26:51.018
81.0, 48420.71812399842, 69206.54406625558, 15761.153788704132, -187500.02235174447, 74629.99369263575, -187500.02235174447, -166909.32713858213, -187500.02235174447, -0.19, 0.96, 0.05, 192.0, 0.0, 0.0, 0.0, 0.0, 0.0, 0.0, 0.0, 0.0, 0.0, 1.7184688110187433E9, 0.0, 2024-06-15 11:26:51.018
82.0, 48475.47989791392, 69285.82570383855, 16766.5576060483, -187500.02235174447, 74631.6700734699, -187500.02235174447, -166814.4216316249, -187500.02235174447, -0.19, 0.96, 0.05, 192.0, 0.0, 0.0, 0.0, 0.0, 0.0, 0.0, 0.0, 0.0, 0.0, 1.718468811018753E9, 0.0, 2024-06-15 11:26:51.018
83.0, 48780.5141544955, 69619.93957995648, 13697.57368535682, -187500.02235174447, 74884.31184104823, -187500.02235174447, -167204.4148688811, -187500.02235174447, -0.19, 0.96, 0.05, 192.0, 0.0, 0.0, 0.0, 0.0, 0.0, 0.0, 0.0, 0.0, 0.0, 1.7184688110187628E9, 0.0, 2024-06-15 11:26:51.018
84.0, 48801.43538730567, 69628.99203646088, 11874.408945370787, -187500.02235174447, 75035.92372368858, -187500.02235174447, -167428.4687553011, -187500.02235174447, -0.19, 0.96, 0.05, 192.0, 0.0, 0.0, 0.0, 0.0, 0.0, 0.0, 0.0, 0.0, 0.0, 1.7184688110187724E9, 0.0, 2024-06-15 11:26:51.018
85.0, 48479.83848808271, 69296.46513419929, 15159.243662267168, -187500.02235174447, 74722.66402514745, -187500.02235174447, -167002.57861644967, -187500.02235174447, -0.19, 0.96, 0.05, 192.0, 0.0, 0.0, 0.0, 0.0, 0.0, 0.0, 0.0, 0.0, 0.0, 1.7184688110187824E9, 0.0, 2024-06-15 11:26:51.018
86.0, 48467.00858676536, 69293.849980098, 16894.901322710673, -187500.02235174447, 74633.23469558176, -187500.02235174447, -166828.6820445874, -187500.02235174447, -0.19, 0.96, 0.05, 192.0, 0.0, 0.0, 0.0, 0.0, 0.0, 0.0, 0.0, 0.0, 0.0, 1.7184688110187924E9, 0.0, 2024-06-15 11:26:51.018
87.0, 48725.93119453564, 69577.31480328021, 14397.831487397134, -187500.02235174447, 74847.02913129677, -187500.02235174447, -167123.52390569734, -187500.02235174447, -0.19, 0.96, 0.05, 192.0, 0.0, 0.0, 0.0, 0.0, 0.0, 0.0, 0.0, 0.0, 0.0, 1.718468811018803E9, 0.0, 2024-06-15 11:26:51.018
88.0, 48851.257425696545, 69713.36987177967, 11742.064266450914, -187500.02235174447, 75046.63020928267, -187500.02235174447, -167450.1722991672, -187500.02235174447, -0.182, 0.966, 0.048, 192.0, 250.0, 80.0, 30.0, 48.0, 1.0, 128.0, 0.0, 0.0, 0.0, 1.7184688110188134E9, 0.0, 2024-06-15 11:26:51.018
89.0, 48527.425352028054, 69386.02857423169, 14536.635820464591, -187500.02235174447, 74785.71829625587, -187500.02235174447, -167053.7864629968, -187500.02235174447, -0.182, 0.966, 0.048, 192.0, 0.0, 0.0, 0.0, 0.0, 0.0, 0.0, 0.0, 0.0, 0.0, 1.7184688110188231E9, 0.0, 2024-06-15 11:26:51.018
90.0, 48480.77726134983, 69341.66036148791, 16939.22483196555, -187500.02235174447, 74616.06855584009, -187500.02235174447, -166800.94352971835, -187500.02235174447, -0.182, 0.966, 0.048, 192.0, 0.0, 0.0, 0.0, 0.0, 0.0, 0.0, 0.0, 0.0, 0.0, 1.7184688110188332E9, 0.0, 2024-06-15 11:26:51.018
91.0, 48680.44539456909, 69545.97765755387, 15120.709254826219, -187500.02235174447, 74792.46852308136, -187500.02235174447, -167007.25013104084, -187500.02235174447, -0.182, 0.966, 0.048, 192.0, 0.0, 0.0, 0.0, 0.0, 0.0, 0.0, 0.0, 0.0, 0.0, 1.718468811018843E9, 0.0, 2024-06-15 11:26:51.018
92.0, 48921.57601375294, 69789.09758199425, 11835.293392574, -187500.02235174447, 75028.74881371843, -187500.02235174447, -167430.92744719118, -187500.02235174447, -0.182, 0.966, 0.048, 192.0, 0.0, 0.0, 0.0, 0.0, 0.0, 0.0, 0.0, 0.0, 0.0, 1.7184688110188532E9, 0.0, 2024-06-15 11:26:51.018
93.0, 48617.972268816506, 69473.73681947432, 13839.239041714554, -187500.02235174447, 74864.06116057171, -187500.02235174447, -167140.13125182764, -187500.02235174447, -0.182, 0.966, 0.048, 192.0, 0.0, 0.0, 0.0, 0.0, 0.0, 0.0, 0.0, 0.0, 0.0, 1.7184688110188632E9, 0.0, 2024-06-15 11:26:51.018
94.0, 48488.287447486815, 69358.2677076182, 16852.6788774346, -187500.02235174447, 74592.44276195082, -187500.02235174447, -166771.39452354843, -187500.02235174447, -0.182, 0.966, 0.048, 192.0, 0.0, 0.0, 0.0, 0.0, 0.0, 0.0, 0.0, 0.0, 0.0, 1.7184688110188732E9, 0.0, 2024-06-15 11:26:51.018
0.0, 0.0, 0.0, 0.0, 0.0, 0.0, 0.0, 0.0, 0.0, -0.182, 0.966, 0.048, 192.0, 0.0, 0.0, 0.0, 0.0, 0.0, 0.0, 0.0, 0.0, 0.0, 1.7184688111205487E9, 0.0, 2024-06-15 11:26:51.120
1.0, 48188.1258711965, 68388.26905349124, 9534.047190433406, -187500.02235174447, 72848.38084559212, -187500.02235174447, -173861.68078919422, -187500.02235174447, -0.25, 0.9440000000000001, 0.05, 192.0, 248.0, 48.0, 29.0, 128.0, 1.0, 144.0, 0.0, 0.0, 0.0, 1.718468811590431E9, 0.0, 2024-06-15 11:26:51.590
2.0, 48190.49515610876, 68342.44797735786, 9335.18372001454, -187500.02235174447, 72986.31346062582, -187500.02235174447, -173894.22492912115, -187500.02235174447, -0.25, 0.9440000000000001, 0.05, 192.0, 0.0, 0.0, 0.0, 0.0, 0.0, 0.0, 0.0, 0.0, 0.0, 1.7184688115904844E9, 0.0, 2024-06-15 11:26:51.590
3.0, 48085.57606763555, 68170.58541424101, 9334.51316768088, -187500.02235174447, 73140.49579387854, -187500.02235174447, -173891.11803664186, -187500.02235174447, -0.25, 0.9440000000000001, 0.05, 192.0, 0.0, 0.0, 0.0, 0.0, 0.0, 0.0, 0.0, 0.0, 0.0, 1.7184688115905204E9, 0.0, 2024-06-15 11:26:51.590
4.0, 48018.20790984725, 68140.67878015981, 9715.5433554105, -187500.02235174447, 73032.22394373703, -187500.02235174447, -173709.26424375348, -187500.02235174447, -0.25, 0.9440000000000001, 0.05, 192.0, 0.0, 0.0, 0.0, 0.0, 0.0, 0.0, 0.0, 0.0, 0.0, 1.7184688115905535E9, 0.0, 2024-06-15 11:26:51.590
5.0, 48151.267844589696, 68356.10489322006, 9680.67463406022, -187500.02235174447, 72815.188505076, -187500.02235174447, -173798.98414599706, -187500.02235174447, -0.25, 0.9440000000000001, 0.05, 192.0, 0.0, 0.0, 0.0, 0.0, 0.0, 0.0, 0.0, 0.0, 0.0, 1.7184688115905728E9, 0.0, 2024-06-15 11:26:51.590
6.0, 48189.86930726401, 68356.61898334253, 9411.62668605169, -187500.02235174447, 72950.8188904308, -187500.02235174447, -173858.283324037, -187500.02235174447, -0.25, 0.9440000000000001, 0.05, 192.0, 0.0, 0.0, 0.0, 0.0, 0.0, 0.0, 0.0, 0.0, 0.0, 1.7184688115905876E9, 0.0, 2024-06-15 11:26:51.590
7.0, 48135.465161259795, 68216.71941479677, 9354.98736560194, -187500.02235174447, 73126.16832568268, -187500.02235174447, -173892.6379552648, -187500.02235174447, -0.25, 0.9440000000000001, 0.05, 192.0, 0.0, 0.0, 0.0, 0.0, 0.0, 0.0, 0.0, 0.0, 0.0, 1.7184688115906005E9, 0.0, 2024-06-15 11:26:51.590
8.0, 48030.4343140643, 68130.86636434394, 9765.253635079103, -187500.02235174447, 73096.08287764584, -187500.02235174447, -173698.22248199256, -187500.02235174447, -0.278, 0.9380000000000001, 0.038, 192.0, 247.0, 80.0, 29.0, 80.0, 1.0, 48.0, 0.0, 0.0, 0.0, 1.7184688115906098E9, 0.0, 2024-06-15 11:26:51.590
9.0, 48164.14244939595, 68354.29440191918, 9790.108774913404, -187500.02235174447, 72837.7414152314, -187500.02235174447, -173769.79276773846, -187500.02235174447, -0.278, 0.9380000000000001, 0.038, 192.0, 0.0, 0.0, 0.0, 0.0, 0.0, 0.0, 0.0, 0.0, 0.0, 1.7184688115906196E9, 0.0, 2024-06-15 11:26:51.590
10.0, 48210.45526390735, 68393.3428994826, 9449.311727203338, -187500.02235174447, 72936.62553270168, -187500.02235174447, -173850.70608266667, -187500.02235174447, -0.278, 0.9380000000000001, 0.038, 192.0, 0.0, 0.0, 0.0, 0.0, 0.0, 0.0, 0.0, 0.0, 0.0, 1.718468811590629E9, 0.0, 2024-06-15 11:26:51.590
11.0, 48187.187097929374, 68293.22943606728, 9331.94271706852, -187500.02235174447, 73122.4579361031, -187500.02235174447, -173912.37454561886, -187500.02235174447, -0.278, 0.9380000000000001, 0.038, 192.0, 0.0, 0.0, 0.0, 0.0, 0.0, 0.0, 0.0, 0.0, 0.0, 1.7184688115906394E9, 0.0, 2024-06-15 11:26:51.590
12.0, 48050.863808496455, 68153.91101287735, 9736.241070776114, -187500.02235174447, 73165.44034069066, -187500.02235174447, -173738.52267724546, -187500.02235174447, -0.278, 0.9380000000000001, 0.038, 192.0, 0.0, 0.0, 0.0, 0.0, 0.0, 0.0, 0.0, 0.0, 0.0, 1.7184688115906491E9, 0.0, 2024-06-15 11:26:51.590
13.0, 48116.48853021724, 68298.83972392556, 9879.538104479088, -187500.02235174447, 72854.81814799526, -187500.02235174447, -173740.46727901307, -187500.02235174447, -0.278, 0.9380000000000001, 0.038, 192.0, 0.0, 0.0, 0.0, 0.0, 0.0, 0.0, 0.0, 0.0, 0.0, 1.7184688115906584E9, 0.0, 2024-06-15 11:26:51.590
14.0, 48181.28623739317, 68381.56353015466, 9490.6401027012, -187500.02235174447, 72882.13197971965, -187500.02235174447, -173828.3319864669, -187500.02235174447, -0.278, 0.9380000000000001, 0.038, 192.0, 0.0, 0.0, 0.0, 0.0, 0.0, 0.0, 0.0, 0.0, 0.0, 1.7184688115906675E9, 0.0, 2024-06-15 11:26:51.590
15.0, 48184.460185105825, 68305.54524726215, 9308.763958068366, -187500.02235174447, 73073.28409830143, -187500.02235174447, -173905.0431734375, -187500.02235174447, -0.278, 0.9380000000000001, 0.038, 192.0, 0.0, 0.0, 0.0, 0.0, 0.0, 0.0, 0.0, 0.0, 0.0, 1.718468811590677E9, 0.0, 2024-06-15 11:26:51.590
16.0, 48014.78809294559, 68100.08801222897, 9743.527739468544, -187500.02235174447, 73160.5676603994, -187500.02235174447, -173724.19520904962, -187500.02235174447, -0.278, 0.9380000000000001, 0.038, 192.0, 0.0, 0.0, 0.0, 0.0, 0.0, 0.0, 0.0, 0.0, 0.0, 1.7184688115906868E9, 0.0, 2024-06-15 11:26:51.590
17.0, 48106.89963184591, 68266.02736306516, 10030.07710338558, -187500.02235174447, 72892.9055205471, -187500.02235174447, -173664.91838275414, -187500.02235174447, -0.278, 0.9380000000000001, 0.038, 192.0, 0.0, 0.0, 0.0, 0.0, 0.0, 0.0, 0.0, 0.0, 0.0, 1.718468811590696E9, 0.0, 2024-06-15 11:26:51.590
18.0, 48217.87604306651, 68422.22135331886, 9553.26969066497, -187500.02235174447, 72879.51682561837, -187500.02235174447, -173820.62063462983, -187500.02235174447, -0.3, 0.928, 0.038, 192.0, 246.0, 160.0, 29.0, 0.0, 1.0, 48.0, 0.0, 0.0, 0.0, 1.7184688115907056E9, 0.0, 2024-06-15 11:26:51.590
19.0, 48219.10538901155, 68347.09714020457, 9296.068167217752, -187500.02235174447, 73048.18308927811, -187500.02235174447, -173889.01697266306, -187500.02235174447, -0.3, 0.928, 0.038, 192.0, 0.0, 0.0, 0.0, 0.0, 0.0, 0.0, 0.0, 0.0, 0.0, 1.7184688115907147E9, 0.0, 2024-06-15 11:26:51.590
20.0, 48075.22720995274, 68152.10052157647, 9661.876816973307, -187500.02235174447, 73192.26243403702, -187500.02235174447, -173778.59935505383, -187500.02235174447, -0.3, 0.928, 0.038, 192.0, 0.0, 0.0, 0.0, 0.0, 0.0, 0.0, 0.0, 0.0, 0.0, 1.7184688115907242E9, 0.0, 2024-06-15 11:26:51.590
21.0, 48069.43810813881, 68215.08773745153, 10124.602630687074, -187500.02235174447, 72934.25624778942, -187500.02235174447, -173627.25569334696, -187500.02235174447, -0.3, 0.928, 0.038, 192.0, 0.0, 0.0, 0.0, 0.0, 0.0, 0.0, 0.0, 0.0, 0.0, 1.7184688115907333E9, 0.0, 2024-06-15 11:26:51.590
22.0, 48215.216185476325, 68421.30493179618, 9629.71265670212, -187500.02235174447, 72859.48966258642, -187500.02235174447, -173814.22803571558, -187500.02235174447, -0.3, 0.928, 0.038, 192.0, 0.0, 0.0, 0.0, 0.0, 0.0, 0.0, 0.0, 0.0, 0.0, 1.7184688115907428E9, 0.0, 2024-06-15 11:26:51.590
23.0, 48206.431949905396, 68358.63064034352, 9283.819411256243, -187500.02235174447, 73019.66226335315, -187500.02235174447, -173877.05878937946, -187500.02235174447, -0.3, 0.928, 0.038, 192.0, 0.0, 0.0, 0.0, 0.0, 0.0, 0.0, 0.0, 0.0, 0.0, 1.7184688115907528E9, 0.0, 2024-06-15 11:26:51.590
24.0, 48084.03379726813, 68167.56792873955, 9606.623304679788, -187500.02235174447, 73193.96116661563, -187500.02235174447, -173801.04050648696, -187500.02235174447, -0.3, 0.928, 0.038, 192.0, 0.0, 0.0, 0.0, 0.0, 0.0, 0.0, 0.0, 0.0, 0.0, 1.7184688115907648E9, 0.0, 2024-06-15 11:26:51.590
25.0, 48031.909529198354, 68160.28126004711, 10236.964850063903, -187500.02235174447, 72996.70702179754, -187500.02235174447, -173576.80780611132, -187500.02235174447, -0.3, 0.928, 0.038, 192.0, 0.0, 0.0, 0.0, 0.0, 0.0, 0.0, 0.0, 0.0, 0.0, 1.7184688115907795E9, 0.0, 2024-06-15 11:26:51.590
26.0, 48226.481464681805, 68430.06681562267, 9773.747297972119, -187500.02235174447, 72853.83467123922, -187500.02235174447, -173774.0619509294, -187500.02235174447, -0.3, 0.928, 0.038, 192.0, 0.0, 0.0, 0.0, 0.0, 0.0, 0.0, 0.0, 0.0, 0.0, 1.7184688115907943E9, 0.0, 2024-06-15 11:26:51.590
27.0, 48260.50081974278, 68426.42348127645, 9261.624129012123, -187500.02235174447, 73032.04512978139, -187500.02235174447, -173890.7380569861, -187500.02235174447, -0.3, 0.928, 0.038, 192.0, 0.0, 0.0, 0.0, 0.0, 0.0, 0.0, 0.0, 0.0, 0.0, 1.7184688115908086E9, 0.0, 2024-06-15 11:26:51.590
28.0, 48137.3650595385, 68229.68342658084, 9513.863565190264, -187500.02235174447, 73198.90090214026, -187500.02235174447, -173848.4932599656, -187500.02235174447, -0.3, 0.928, 0.038, 192.0, 0.0, 0.0, 0.0, 0.0, 0.0, 0.0, 0.0, 0.0, 0.0, 1.7184688115908196E9, 0.0, 2024-06-15 11:26:51.590
29.0, 48023.259404094155, 68146.08790231799, 10294.721757736417, -187500.02235174447, 73071.2947930449, -187500.02235174447, -173570.70577987502, -187500.02235174447, -0.306, 0.932, 0.032, 192.0, 246.0, 112.0, 29.0, 32.0, 1.0, 0.0, 0.0, 0.0, 0.0, 1.718468811590829E9, 0.0, 2024-06-15 11:26:51.590
30.0, 48205.224955704805, 68410.8443153911, 9957.568044372565, -187500.02235174447, 72838.27785709834, -187500.02235174447, -173719.36723224728, -187500.02235174447, -0.306, 0.932, 0.032, 192.0, 0.0, 0.0, 0.0, 0.0, 0.0, 0.0, 0.0, 0.0, 0.0, 1.7184688115908384E9, 0.0, 2024-06-15 11:26:51.590
31.0, 48262.78069767722, 68440.41567330548, 9316.788234327822, -187500.02235174447, 72993.39896361816, -187500.02235174447, -173857.12103332533, -187500.02235174447, -0.306, 0.932, 0.032, 192.0, 0.0, 0.0, 0.0, 0.0, 0.0, 0.0, 0.0, 0.0, 0.0, 1.71846881159086E9, 0.0, 2024-06-15 11:26:51.590
32.0, 48182.15795542693, 68280.95832836132, 9451.792770837876, -187500.02235174447, 73183.7240676551, -187500.02235174447, -173869.68271370922, -187500.02235174447, -0.306, 0.932, 0.032, 192.0, 0.0, 0.0, 0.0, 0.0, 0.0, 0.0, 0.0, 0.0, 0.0, 1.7184688115908756E9, 0.0, 2024-06-15 11:26:51.590
33.0, 48020.06310463704, 68119.84695432747, 10355.920834055047, -187500.02235174447, 73137.07597697688, -187500.02235174447, -173572.85154734273, -187500.02235174447, -0.306, 0.932, 0.032, 192.0, 0.0, 0.0, 0.0, 0.0, 0.0, 0.0, 0.0, 0.0, 0.0, 1.7184688115908928E9, 0.0, 2024-06-15 11:26:51.590
34.0, 48181.599161815546, 68363.2350997013, 10207.952285760914, -187500.02235174447, 72838.63548500961, -187500.02235174447, -173656.4917750945, -187500.02235174447, -0.306, 0.932, 0.032, 192.0, 0.0, 0.0, 0.0, 0.0, 0.0, 0.0, 0.0, 0.0, 0.0, 1.7184688115909202E9, 0.0, 2024-06-15 11:26:51.590
35.0, 48297.40354983849, 68478.83832202415, 9394.19232537655, -187500.02235174447, 72980.81493148982, -187500.02235174447, -173864.96649562914, -187500.02235174447, -0.306, 0.932, 0.032, 192.0, 0.0, 0.0, 0.0, 0.0, 0.0, 0.0, 0.0, 0.0, 0.0, 1.7184688115909462E9, 0.0, 2024-06-15 11:26:51.590
36.0, 48221.45232217936, 68322.1749451369, 9412.140776174161, -187500.02235174447, 73156.47729116408, -187500.02235174447, -173886.96061217316, -187500.02235174447, -0.306, 0.932, 0.032, 192.0, 0.0, 0.0, 0.0, 0.0, 0.0, 0.0, 0.0, 0.0, 0.0, 1.7184688115909557E9, 0.0, 2024-06-15 11:26:51.590
37.0, 48044.65002353788, 68129.30174223206, 10373.422249963553, -187500.02235174447, 73196.57632071691, -187500.02235174447, -173586.03907657135, -187500.02235174447, -0.306, 0.932, 0.032, 192.0, 0.0, 0.0, 0.0, 0.0, 0.0, 0.0, 0.0, 0.0, 0.0, 1.7184688115909653E9, 0.0, 2024-06-15 11:26:51.590
38.0, 48175.63124604598, 68343.94554423637, 10450.02167821189, -187500.02235174447, 72903.03086078535, -187500.02235174447, -173612.83881817327, -187500.02235174447, -0.306, 0.932, 0.032, 192.0, 0.0, 0.0, 0.0, 0.0, 0.0, 0.0, 0.0, 0.0, 0.0, 1.7184688115909903E9, 0.0, 2024-06-15 11:26:51.590
39.0, 48292.687331758425, 68490.14830471853, 9531.253222376494, -187500.02235174447, 72966.91214643863, -187500.02235174447, -173841.11718429532, -187500.02235174447, -0.31, 0.936, 0.02, 192.0, 246.0, 80.0, 29.0, 64.0, 0.0, 160.0, 0.0, 0.0, 0.0, 1.7184688115909996E9, 0.0, 2024-06-15 11:26:51.590
40.0, 48225.96737455933, 68353.08740771859, 9396.852182966732, -187500.02235174447, 73132.98560774155, -187500.02235174447, -173875.98590564562, -187500.02235174447, -0.31, 0.936, 0.02, 192.0, 0.0, 0.0, 0.0, 0.0, 0.0, 0.0, 0.0, 0.0, 0.0, 1.718468811591009E9, 0.0, 2024-06-15 11:26:51.591
41.0, 48017.62676449141, 68092.95780574773, 10364.258034736877, -187500.02235174447, 73209.92031215673, -187500.02235174447, -173573.6785618876, -187500.02235174447, -0.31, 0.936, 0.02, 192.0, 0.0, 0.0, 0.0, 0.0, 0.0, 0.0, 0.0, 0.0, 0.0, 1.718468811591018E9, 0.0, 2024-06-15 11:26:51.591
42.0, 48128.871396645474, 68275.03511608066, 10722.042408232977, -187500.02235174447, 72930.14352680964, -187500.02235174447, -173507.62915702214, -187500.02235174447, -0.31, 0.936, 0.02, 192.0, 0.0, 0.0, 0.0, 0.0, 0.0, 0.0, 0.0, 0.0, 0.0, 1.7184688115910275E9, 0.0, 2024-06-15 11:26:51.591
43.0, 48277.80106995119, 68469.07060969718, 9746.701687181197, -187500.02235174447, 72919.83937261574, -187500.02235174447, -173769.23397412707, -187500.02235174447, -0.31, 0.936, 0.02, 192.0, 0.0, 0.0, 0.0, 0.0, 0.0, 0.0, 0.0, 0.0, 0.0, 1.7184688115910373E9, 0.0, 2024-06-15 11:26:51.591
44.0, 48263.47360175534, 68389.09606803609, 9373.628720477667, -187500.02235174447, 73114.32190112137, -187500.02235174447, -173864.92179214023, -187500.02235174447, -0.31, 0.936, 0.02, 192.0, 0.0, 0.0, 0.0, 0.0, 0.0, 0.0, 0.0, 0.0, 0.0, 1.7184688115910468E9, 0.0, 2024-06-15 11:26:51.591
45.0, 48063.20197143579, 68140.41055922635, 10211.93089627396, -187500.02235174447, 73239.17874564872, -187500.02235174447, -173644.2877226219, -187500.02235174447, -0.31, 0.936, 0.02, 192.0, 0.0, 0.0, 0.0, 0.0, 0.0, 0.0, 0.0, 0.0, 0.0, 1.718468811591056E9, 0.0, 2024-06-15 11:26:51.591
46.0, 48099.590611409025, 68234.73492082774, 10863.90893029081, -187500.02235174447, 72987.18517865958, -187500.02235174447, -173477.9460403855, -187500.02235174447, -0.31, 0.936, 0.02, 192.0, 0.0, 0.0, 0.0, 0.0, 0.0, 0.0, 0.0, 0.0, 0.0, 1.7184688115910652E9, 0.0, 2024-06-15 11:26:51.591
47.0, 48302.544451063215, 68500.40775542353, 9886.645959215875, -187500.02235174447, 72906.83065734275, -187500.02235174447, -173793.3738581388, -187500.02235174447, -0.31, 0.936, 0.02, 192.0, 0.0, 0.0, 0.0, 0.0, 0.0, 0.0, 0.0, 0.0, 0.0, 1.7184688115910745E9, 0.0, 2024-06-15 11:26:51.591
48.0, 48278.44927054039, 68414.84527764861, 9303.533649865825, -187500.02235174447, 73087.253938586, -187500.02235174447, -173917.67190905477, -187500.02235174447, -0.31, 0.936, 0.02, 192.0, 0.0, 0.0, 0.0, 0.0, 0.0, 0.0, 0.0, 0.0, 0.0, 1.7184688115910845E9, 0.0, 2024-06-15 11:26:51.591
49.0, 48110.58766968104, 68179.03437364512, 9982.803163862607, -187500.02235174447, 73244.49846082908, -187500.02235174447, -173766.68587525917, -187500.02235174447, -0.302, 0.9440000000000001, 0.014, 192.0, 246.0, 144.0, 29.0, 128.0, 0.0, 112.0, 0.0, 0.0, 0.0, 1.7184688115910945E9, 0.0, 2024-06-15 11:26:51.591
50.0, 48036.20106413378, 68146.91491686284, 10938.586108515992, -187500.02235174447, 73029.31821695784, -187500.02235174447, -173464.87026987915, -187500.02235174447, -0.302, 0.9440000000000001, 0.014, 192.0, 0.0, 0.0, 0.0, 0.0, 0.0, 0.0, 0.0, 0.0, 0.0, 1.718468811591104E9, 0.0, 2024-06-15 11:26:51.591
51.0, 48260.12084008704, 68452.64207752253, 10135.510281981264, -187500.02235174447, 72854.03583693932, -187500.02235174447, -173725.67042418366, -187500.02235174447, -0.302, 0.9440000000000001, 0.014, 192.0, 0.0, 0.0, 0.0, 0.0, 0.0, 0.0, 0.0, 0.0, 0.0, 1.718468811591114E9, 0.0, 2024-06-15 11:26:51.591
52.0, 48303.997314452805, 68463.23680439434, 9322.756150097388, -187500.02235174447, 73051.78172013542, -187500.02235174447, -173908.6418042948, -187500.02235174447, -0.302, 0.9440000000000001, 0.014, 192.0, 0.0, 0.0, 0.0, 0.0, 0.0, 0.0, 0.0, 0.0, 0.0, 1.71846881159114E9, 0.0, 2024-06-15 11:26:51.591
53.0, 48162.62253077299, 68245.64257212193, 9799.205934906715, -187500.02235174447, 73234.08254791291, -187500.02235174447, -173837.8314778604, -187500.02235174447, -0.302, 0.9440000000000001, 0.014, 192.0, 0.0, 0.0, 0.0, 0.0, 0.0, 0.0, 0.0, 0.0, 0.0, 1.7184688115911503E9, 0.0, 2024-06-15 11:26:51.591
54.0, 48034.435276321805, 68139.76235863715, 10929.73481771169, -187500.02235174447, 73110.18682839714, -187500.02235174447, -173503.27056685337, -187500.02235174447, -0.302, 0.9440000000000001, 0.014, 192.0, 0.0, 0.0, 0.0, 0.0, 0.0, 0.0, 0.0, 0.0, 0.0, 1.71846881159116E9, 0.0, 2024-06-15 11:26:51.591
55.0, 48236.09271479758, 68427.36225454358, 10368.326052227743, -187500.02235174447, 72854.70638927298, -187500.02235174447, -173703.4080867062, -187500.02235174447, -0.302, 0.9440000000000001, 0.014, 192.0, 0.0, 0.0, 0.0, 0.0, 0.0, 0.0, 0.0, 0.0, 0.0, 1.7184688115911856E9, 0.0, 2024-06-15 11:26:51.591
56.0, 48278.82925019613, 68450.67512401046, 9378.166124602094, -187500.02235174447, 73004.44072537909, -187500.02235174447, -173903.9926414481, -187500.02235174447, -0.302, 0.9440000000000001, 0.014, 192.0, 0.0, 0.0, 0.0, 0.0, 0.0, 0.0, 0.0, 0.0, 0.0, 1.7184688115911968E9, 0.0, 2024-06-15 11:26:51.591
57.0, 48145.90342592042, 68235.02549350566, 9684.697948062176, -187500.02235174447, 73163.31692496741, -187500.02235174447, -173847.80035588748, -187500.02235174447, -0.302, 0.9440000000000001, 0.014, 192.0, 0.0, 0.0, 0.0, 0.0, 0.0, 0.0, 0.0, 0.0, 0.0, 1.718468811591206E9, 0.0, 2024-06-15 11:26:51.591
58.0, 47994.582115957994, 68094.34361390395, 10951.572472044525, -187500.02235174447, 73135.28783742044, -187500.02235174447, -173474.57092697275, -187500.02235174447, -0.302, 0.9440000000000001, 0.014, 192.0, 0.0, 0.0, 0.0, 0.0, 0.0, 0.0, 0.0, 0.0, 0.0, 1.7184688115912156E9, 0.0, 2024-06-15 11:26:51.591
59.0, 48186.270676406704, 68384.53631216721, 10700.808251000435, -187500.02235174447, 72828.97953140493, -187500.02235174447, -173585.79320738235, -187500.02235174447, -0.28400000000000003, 0.9480000000000001, 0.016, 192.0, 247.0, 32.0, 29.0, 160.0, 0.0, 128.0, 0.0, 0.0, 0.0, 1.718468811591225E9, 0.0, 2024-06-15 11:26:51.591
60.0, 48314.23441341334, 68514.80227885275, 9497.21151557106, -187500.02235174447, 72971.60601277424, -187500.02235174447, -173872.3425712994, -187500.02235174447, -0.28400000000000003, 0.9480000000000001, 0.016, 192.0, 0.0, 0.0, 0.0, 0.0, 0.0, 0.0, 0.0, 0.0, 0.0, 1.7184688115912344E9, 0.0, 2024-06-15 11:26:51.591
61.0, 48216.423179676916, 68320.83384046958, 9533.443693333113, -187500.02235174447, 73169.68717213717, -187500.02235174447, -173898.4494088232, -187500.02235174447, -0.28400000000000003, 0.9480000000000001, 0.016, 192.0, 0.0, 0.0, 0.0, 0.0, 0.0, 0.0, 0.0, 0.0, 0.0, 1.7184688115912445E9, 0.0, 2024-06-15 11:26:51.591
62.0, 48018.3867238029, 68094.29891041505, 10844.462912614694, -187500.02235174447, 73204.84646616537, -187500.02235174447, -173533.1101457012, -187500.02235174447, -0.28400000000000003, 0.9480000000000001, 0.016, 192.0, 0.0, 0.0, 0.0, 0.0, 0.0, 0.0, 0.0, 0.0, 0.0, 1.7184688115912607E9, 0.0, 2024-06-15 11:26:51.591
63.0, 48150.217312600296, 68313.0777851436, 10956.892187224888, -187500.02235174447, 72874.57709009375, -187500.02235174447, -173543.72722431747, -187500.02235174447, -0.28400000000000003, 0.9480000000000001, 0.016, 192.0, 0.0, 0.0, 0.0, 0.0, 0.0, 0.0, 0.0, 0.0, 0.0, 1.7184688115912702E9, 0.0, 2024-06-15 11:26:51.591
64.0, 48291.86031721358, 68488.82955179567, 9649.091619144872, -187500.02235174447, 72921.69456740553, -187500.02235174447, -173856.9422193697, -187500.02235174447, -0.28400000000000003, 0.9480000000000001, 0.016, 192.0, 0.0, 0.0, 0.0, 0.0, 0.0, 0.0, 0.0, 0.0, 0.0, 1.7184688115912795E9, 0.0, 2024-06-15 11:26:51.591
65.0, 48232.918767084935, 68351.52278560672, 9428.189328693072, -187500.02235174447, 73120.58038956886, -187500.02235174447, -173915.66025205379, -187500.02235174447, -0.28400000000000003, 0.9480000000000001, 0.016, 192.0, 0.0, 0.0, 0.0, 0.0, 0.0, 0.0, 0.0, 0.0, 0.0, 1.7184688115912893E9, 0.0, 2024-06-15 11:26:51.591
66.0, 47994.40330200235, 68076.90925322882, 10709.391320871273, -187500.02235174447, 73197.22452130611, -187500.02235174447, -173566.70481761752, -187500.02235174447, -0.28400000000000003, 0.9480000000000001, 0.016, 192.0, 0.0, 0.0, 0.0, 0.0, 0.0, 0.0, 0.0, 0.0, 0.0, 1.7184688115912995E9, 0.0, 2024-06-15 11:26:51.591
67.0, 48071.494468628705, 68229.81753704758, 11248.761266322288, -187500.02235174447, 72870.3973138806, -187500.02235174447, -173425.41944091552, -187500.02235174447, -0.28400000000000003, 0.9480000000000001, 0.016, 192.0, 0.0, 0.0, 0.0, 0.0, 0.0, 0.0, 0.0, 0.0, 0.0, 1.7184688115913086E9, 0.0, 2024-06-15 11:26:51.591
68.0, 48292.5979247806, 68496.27268269929, 9867.132886306392, -187500.02235174447, 72872.58778483722, -187500.02235174447, -173809.89179729126, -187500.02235174447, -0.28400000000000003, 0.9480000000000001, 0.016, 192.0, 0.0, 0.0, 0.0, 0.0, 0.0, 0.0, 0.0, 0.0, 0.0, 1.718468811591318E9, 0.0, 2024-06-15 11:26:51.591
69.0, 48246.66508992494, 68379.6412801315, 9332.143882768618, -187500.02235174447, 73077.44152277011, -187500.02235174447, -173938.8613627984, -187500.02235174447, -0.28400000000000003, 0.9480000000000001, 0.016, 192.0, 0.0, 0.0, 0.0, 0.0, 0.0, 0.0, 0.0, 0.0, 0.0, 1.7184688115913272E9, 0.0, 2024-06-15 11:26:51.591
70.0, 47990.02236008911, 68073.95882296072, 10516.94280111108, -187500.02235174447, 73181.5783001874, -187500.02235174447, -173618.3820507982, -187500.02235174447, -0.268, 0.9560000000000001, 0.016, 192.0, 247.0, 160.0, 29.0, 224.0, 0.0, 128.0, 0.0, 0.0, 0.0, 1.7184688115913365E9, 0.0, 2024-06-15 11:26:51.591
71.0, 48022.834720949504, 68171.5465392526, 11425.742378919409, -187500.02235174447, 72928.22127678648, -187500.02235174447, -173379.1736816375, -187500.02235174447, -0.268, 0.9560000000000001, 0.016, 192.0, 0.0, 0.0, 0.0, 0.0, 0.0, 0.0, 0.0, 0.0, 0.0, 1.7184688115913453E9, 0.0, 2024-06-15 11:26:51.591
72.0, 48256.253988296274, 68472.46807485439, 10125.47434872083, -187500.02235174447, 72816.52960974332, -187500.02235174447, -173753.02895939696, -187500.02235174447, -0.268, 0.9560000000000001, 0.016, 192.0, 0.0, 0.0, 0.0, 0.0, 0.0, 0.0, 0.0, 0.0, 0.0, 1.7184688115913548E9, 0.0, 2024-06-15 11:26:51.591
73.0, 48258.95854937536, 68414.30883578167, 9281.271312388339, -187500.02235174447, 73029.00529253547, -187500.02235174447, -173936.08974648593, -187500.02235174447, -0.268, 0.9560000000000001, 0.016, 192.0, 0.0, 0.0, 0.0, 0.0, 0.0, 0.0, 0.0, 0.0, 0.0, 1.7184688115913641E9, 0.0, 2024-06-15 11:26:51.591
74.0, 48041.40902059186, 68127.89358233138, 10225.408998180508, -187500.02235174447, 73177.39852397425, -187500.02235174447, -173719.9483776031, -187500.02235174447, -0.268, 0.9560000000000001, 0.016, 192.0, 0.0, 0.0, 0.0, 0.0, 0.0, 0.0, 0.0, 0.0, 0.0, 1.7184688115913737E9, 0.0, 2024-06-15 11:26:51.591
75.0, 47972.45388894724, 68104.96069252022, 11476.212617899493, -187500.02235174447, 72974.51173955343, -187500.02235174447, -173369.89770768853, -187500.02235174447, -0.268, 0.9560000000000001, 0.016, 192.0, 0.0, 0.0, 0.0, 0.0, 0.0, 0.0, 0.0, 0.0, 0.0, 1.7184688115913832E9, 0.0, 2024-06-15 11:26:51.591
76.0, 48234.371630474525, 68447.0541414087, 10384.262846024376, -187500.02235174447, 72782.55495817125, -187500.02235174447, -173707.78902861942, -187500.02235174447, -0.268, 0.9560000000000001, 0.016, 192.0, 0.0, 0.0, 0.0, 0.0, 0.0, 0.0, 0.0, 0.0, 0.0, 1.7184688115913925E9, 0.0, 2024-06-15 11:26:51.591
77.0, 48279.119822874054, 68453.40203683401, 9231.136349575085, -187500.02235174447, 72998.80808577634, -187500.02235174447, -173963.02359855457, -187500.02235174447, -0.268, 0.9560000000000001, 0.016, 192.0, 0.0, 0.0, 0.0, 0.0, 0.0, 0.0, 0.0, 0.0, 0.0, 1.7184688115914018E9, 0.0, 2024-06-15 11:26:51.591
78.0, 48091.56633514957, 68192.22190287375, 9896.81600294304, -187500.02235174447, 73172.14586402725, -187500.02235174447, -173833.56229466945, -187500.02235174447, -0.268, 0.9560000000000001, 0.016, 192.0, 0.0, 0.0, 0.0, 0.0, 0.0, 0.0, 0.0, 0.0, 0.0, 1.7184688115914109E9, 0.0, 2024-06-15 11:26:51.591
79.0, 47932.44426637224, 68053.17170061728, 11425.965896363961, -187500.02235174447, 73046.48435669951, -187500.02235174447, -173387.93556546397, -187500.02235174447, -0.268, 0.9560000000000001, 0.016, 192.0, 0.0, 0.0, 0.0, 0.0, 0.0, 0.0, 0.0, 0.0, 0.0, 1.71846881159142E9, 0.0, 2024-06-15 11:26:51.591
80.0, 48187.477670607295, 68385.63154764552, 10695.26501837552, -187500.02235174447, 72755.26347819132, -187500.02235174447, -173620.34900431026, -187500.02235174447, -0.254, 0.972, 0.024, 192.0, 248.0, 16.0, 30.0, 96.0, 0.0, 192.0, 0.0, 0.0, 0.0, 1.7184688115914292E9, 0.0, 2024-06-15 11:26:51.591
81.0, 48281.75732871978, 68468.84709225263, 9277.471515830937, -187500.02235174447, 72944.78391942786, -187500.02235174447, -173940.78361282154, -187500.02235174447, -0.254, 0.972, 0.024, 192.0, 0.0, 0.0, 0.0, 0.0, 0.0, 0.0, 0.0, 0.0, 0.0, 1.7184688115914388E9, 0.0, 2024-06-15 11:26:51.591
82.0, 48152.20661785682, 68253.48803442574, 9604.94692384564, -187500.02235174447, 73154.68915160766, -187500.02235174447, -173913.8944642418, -187500.02235174447, -0.254, 0.972, 0.024, 192.0, 0.0, 0.0, 0.0, 0.0, 0.0, 0.0, 0.0, 0.0, 0.0, 1.718468811591449E9, 0.0, 2024-06-15 11:26:51.591
83.0, 47935.28293791806, 68029.2553340501, 11246.794312810222, -187500.02235174447, 73117.09351743382, -187500.02235174447, -173452.86738310664, -187500.02235174447, -0.254, 0.972, 0.024, 192.0, 0.0, 0.0, 0.0, 0.0, 0.0, 0.0, 0.0, 0.0, 0.0, 1.718468811591458E9, 0.0, 2024-06-15 11:26:51.591
84.0, 48145.34463230904, 68327.31584636163, 10956.847483735977, -187500.02235174447, 72783.85135934966, -187500.02235174447, -173570.2587449859, -187500.02235174447, -0.254, 0.972, 0.024, 192.0, 0.0, 0.0, 0.0, 0.0, 0.0, 0.0, 0.0, 0.0, 0.0, 1.718468811591468E9, 0.0, 2024-06-15 11:26:51.591
85.0, 48298.901116716996, 68493.97045302039, 9340.79400787282, -187500.02235174447, 72914.6090644132, -187500.02235174447, -173955.06637752848, -187500.02235174447, -0.254, 0.972, 0.024, 192.0, 0.0, 0.0, 0.0, 0.0, 0.0, 0.0, 0.0, 0.0, 0.0, 1.7184688115914772E9, 0.0, 2024-06-15 11:26:51.591
86.0, 48193.557345099136, 68302.79598269415, 9325.907746065586, -187500.02235174447, 73130.41515712919, -187500.02235174447, -173996.43945651525, -187500.02235174447, -0.254, 0.972, 0.024, 192.0, 0.0, 0.0, 0.0, 0.0, 0.0, 0.0, 0.0, 0.0, 0.0, 1.7184688115914862E9, 0.0, 2024-06-15 11:26:51.591
87.0, 47924.73291453516, 68021.0075403461, 10996.633588866423, -187500.02235174447, 73147.3130759374, -187500.02235174447, -173530.27147415536, -187500.02235174447, -0.254, 0.972, 0.024, 192.0, 0.0, 0.0, 0.0, 0.0, 0.0, 0.0, 0.0, 0.0, 0.0, 1.7184688115914953E9, 0.0, 2024-06-15 11:26:51.591
88.0, 48092.03572178313, 68278.27611902668, 11206.181193134928, -187500.02235174447, 72809.30999628425, -187500.02235174447, -173504.0528779093, -187500.02235174447, -0.254, 0.972, 0.024, 192.0, 0.0, 0.0, 0.0, 0.0, 0.0, 0.0, 0.0, 0.0, 0.0, 1.718468811591504E9, 0.0, 2024-06-15 11:26:51.591
89.0, 48298.38702659453, 68508.83436308317, 9493.389367269203, -187500.02235174447, 72876.56639535027, -187500.02235174447, -173935.37449066335, -187500.02235174447, -0.254, 0.972, 0.024, 192.0, 0.0, 0.0, 0.0, 0.0, 0.0, 0.0, 0.0, 0.0, 0.0, 1.7184688115915136E9, 0.0, 2024-06-15 11:26:51.591
90.0, 48223.50868266925, 68347.32065764912, 9145.193892144429, -187500.02235174447, 73092.68541248863, -187500.02235174447, -174021.04872716055, -187500.02235174447, -0.242, 0.986, 0.028, 192.0, 248.0, 112.0, 30.0, 208.0, 0.0, 224.0, 0.0, 0.0, 0.0, 1.7184688115915227E9, 0.0, 2024-06-15 11:26:51.591
91.0, 47964.809592343525, 68046.80145344752, 10696.427309087196, -187500.02235174447, 73187.1215328123, -187500.02235174447, -173625.26638809044, -187500.02235174447, -0.242, 0.986, 0.028, 192.0, 0.0, 0.0, 0.0, 0.0, 0.0, 0.0, 0.0, 0.0, 0.0, 1.718468811591532E9, 0.0, 2024-06-15 11:26:51.591
92.0, 48027.729752985215, 68176.37451605493, 11410.96787583445, -187500.02235174447, 72853.07471192774, -187500.02235174447, -173446.83241210371, -187500.02235174447, -0.242, 0.986, 0.028, 192.0, 0.0, 0.0, 0.0, 0.0, 0.0, 0.0, 0.0, 0.0, 0.0, 1.7184688115915408E9, 0.0, 2024-06-15 11:26:51.591
93.0, 48271.0955466146, 68472.3563161321, 9728.149739283293, -187500.02235174447, 72814.51795274233, -187500.02235174447, -173894.78372273254, -187500.02235174447, -0.242, 0.986, 0.028, 192.0, 0.0, 0.0, 0.0, 0.0, 0.0, 0.0, 0.0, 0.0, 0.0, 1.7184688115915504E9, 0.0, 2024-06-15 11:26:51.591
94.0, 48245.86042712456, 68391.73357388182, 8982.070861109598, -187500.02235174447, 73052.96636259156, -187500.02235174447, -174071.92129754083, -187500.02235174447, -0.242, 0.986, 0.028, 192.0, 0.0, 0.0, 0.0, 0.0, 0.0, 0.0, 0.0, 0.0, 0.0, 1.7184688115915613E9, 0.0, 2024-06-15 11:26:51.591
95.0, 47960.54040915256, 68046.77910170307, 10353.462142164963, -187500.02235174447, 73177.57733792989, -187500.02235174447, -173725.2680927835, -187500.02235174447, -0.242, 0.986, 0.028, 192.0, 0.0, 0.0, 0.0, 0.0, 0.0, 0.0, 0.0, 0.0, 0.0, 1.7184688115915704E9, 0.0, 2024-06-15 11:26:51.591
96.0, 47906.67270501527, 68036.18437483125, 11597.180258891614, -187500.02235174447, 72870.33025864724, -187500.02235174447, -173339.8122596517, -187500.02235174447, -0.242, 0.986, 0.028, 192.0, 0.0, 0.0, 0.0, 0.0, 0.0, 0.0, 0.0, 0.0, 0.0, 1.7184688115915797E9, 0.0, 2024-06-15 11:26:51.591
97.0, 48223.9333658139, 68428.59160048862, 10097.221743729324, -187500.02235174447, 72761.00787651633, -187500.02235174447, -173768.6528287712, -187500.02235174447, -0.242, 0.986, 0.028, 192.0, 0.0, 0.0, 0.0, 0.0, 0.0, 0.0, 0.0, 0.0, 0.0, 1.7184688115915885E9, 0.0, 2024-06-15 11:26:51.591
98.0, 48272.5931134931, 68423.83067891964, 8967.54222721365, -187500.02235174447, 73029.20645823557, -187500.02235174447, -174044.11572743842, -187500.02235174447, -0.242, 0.986, 0.028, 192.0, 0.0, 0.0, 0.0, 0.0, 0.0, 0.0, 0.0, 0.0, 0.0, 1.7184688115915976E9, 0.0, 2024-06-15 11:26:51.591
99.0, 48035.84343622249, 68112.22500946821, 10026.32201031709, -187500.02235174447, 73195.99517536107, -187500.02235174447, -173816.75378283905, -187500.02235174447, -0.242, 0.986, 0.028, 192.0, 0.0, 0.0, 0.0, 0.0, 0.0, 0.0, 0.0, 0.0, 0.0, 1.7184688115916066E9, 0.0, 2024-06-15 11:26:51.591
100.0, 47933.852426272926, 68047.38259880336, 11573.442706280079, -187500.02235174447, 72990.69440253907, -187500.02235174447, -173388.94139396446, -187500.02235174447, -0.222, 0.99, 0.036000000000000004, 192.0, 249.0, 16.0, 30.0, 240.0, 1.0, 32.0, 0.0, 0.0, 0.0, 1.7184688115916157E9, 0.0, 2024-06-15 11:26:51.591
101.0, 48224.29099372518, 68421.41669051847, 10376.886770354125, -187500.02235174447, 72761.65607710554, -187500.02235174447, -173763.04254091295, -187500.02235174447, -0.222, 0.99, 0.036000000000000004, 192.0, 0.0, 0.0, 0.0, 0.0, 0.0, 0.0, 0.0, 0.0, 0.0, 1.7184688115916245E9, 0.0, 2024-06-15 11:26:51.591
102.0, 48288.284038100726, 68459.52641481477, 8929.365447683984, -187500.02235174447, 72982.49131232397, -187500.02235174447, -174091.05439079457, -187500.02235174447, -0.222, 0.99, 0.036000000000000004, 192.0, 0.0, 0.0, 0.0, 0.0, 0.0, 0.0, 0.0, 0.0, 0.0, 1.7184688115916336E9, 0.0, 2024-06-15 11:26:51.591
103.0, 48075.49543088621, 68168.81962642905, 9661.563892550934, -187500.02235174447, 73166.04383779094, -187500.02235174447, -173937.72142383116, -187500.02235174447, -0.222, 0.99, 0.036000000000000004, 192.0, 0.0, 0.0, 0.0, 0.0, 0.0, 0.0, 0.0, 0.0, 0.0, 1.7184688115916426E9, 0.0, 2024-06-15 11:26:51.591
104.0, 47876.788422678525, 67990.67622312024, 11493.445812874534, -187500.02235174447, 73038.4377286956, -187500.02235174447, -173405.10170520566, -187500.02235174447, -0.222, 0.99, 0.036000000000000004, 192.0, 0.0, 0.0, 0.0, 0.0, 0.0, 0.0, 0.0, 0.0, 0.0, 1.7184688115916517E9, 0.0, 2024-06-15 11:26:51.591
105.0, 48153.994757413246, 68353.37798039652, 10761.381478474317, -187500.02235174447, 72731.59298081315, -187500.02235174447, -173650.3897488582, -187500.02235174447, -0.222, 0.99, 0.036000000000000004, 192.0, 0.0, 0.0, 0.0, 0.0, 0.0, 0.0, 0.0, 0.0, 0.0, 1.7184688115916605E9, 0.0, 2024-06-15 11:26:51.591
106.0, 48291.3015236022, 68485.63325233856, 9027.668419798425, -187500.02235174447, 72937.02786410188, -187500.02235174447, -174062.10888172494, -187500.02235174447, -0.222, 0.99, 0.036000000000000004, 192.0, 0.0, 0.0, 0.0, 0.0, 0.0, 0.0, 0.0, 0.0, 0.0, 1.7184688115916696E9, 0.0, 2024-06-15 11:26:51.591
107.0, 48131.888882146945, 68240.99340927522, 9355.70262142451, -187500.02235174447, 73151.04581726145, -187500.02235174447, -174023.48506730617, -187500.02235174447, -0.222, 0.99, 0.036000000000000004, 192.0, 0.0, 0.0, 0.0, 0.0, 0.0, 0.0, 0.0, 0.0, 0.0, 1.718468811591679E9, 0.0, 2024-06-15 11:26:51.591
108.0, 47875.55907673348, 67976.30405143548, 11269.011946798795, -187500.02235174447, 73108.91277896319, -187500.02235174447, -173496.58739526122, -187500.02235174447, -0.222, 0.99, 0.036000000000000004, 192.0, 0.0, 0.0, 0.0, 0.0, 0.0, 0.0, 0.0, 0.0, 0.0, 1.7184688115916889E9, 0.0, 2024-06-15 11:26:51.591
109.0, 48066.82295403755, 68255.36558095999, 11093.684863291368, -187500.02235174447, 72721.04295743024, -187500.02235174447, -173574.08089328778, -187500.02235174447, -0.222, 0.99, 0.036000000000000004, 192.0, 0.0, 0.0, 0.0, 0.0, 0.0, 0.0, 0.0, 0.0, 0.0, 1.718468811591698E9, 0.0, 2024-06-15 11:26:51.591
110.0, 48247.76032540326, 68454.58667929014, 9212.673808655001, -187500.02235174447, 72847.15149964708, -187500.02235174447, -174013.40443055684, -187500.02235174447, -0.222, 0.99, 0.036000000000000004, 192.0, 0.0, 0.0, 0.0, 0.0, 0.0, 0.0, 0.0, 0.0, 0.0, 1.7184688115917068E9, 0.0, 2024-06-15 11:26:51.591
111.0, 48185.46601360632, 68298.54915124764, 9101.160955567475, -187500.02235174447, 73114.34425286582, -187500.02235174447, -174087.94749831528, -187500.02235174447, -0.216, 0.974, 0.046, 192.0, 249.0, 64.0, 30.0, 112.0, 1.0, 112.0, 0.0, 0.0, 0.0, 1.7184688115917156E9, 0.0, 2024-06-15 11:26:51.591
112.0, 47905.55511779251, 67990.63151963134, 10949.449056321271, -187500.02235174447, 73171.3188494824, -187500.02235174447, -173614.96223389654, -187500.02235174447, -0.216, 0.974, 0.046, 192.0, 0.0, 0.0, 0.0, 0.0, 0.0, 0.0, 0.0, 0.0, 0.0, 1.7184688115917249E9, 0.0, 2024-06-15 11:26:51.591
113.0, 48028.44500880778, 68192.80304822959, 11342.01274418983, -187500.02235174447, 72792.63559492059, -187500.02235174447, -173532.70781430101, -187500.02235174447, -0.216, 0.974, 0.046, 192.0, 0.0, 0.0, 0.0, 0.0, 0.0, 0.0, 0.0, 0.0, 0.0, 1.7184688115917337E9, 0.0, 2024-06-15 11:26:51.591
114.0, 48272.906037915476, 68475.2620429113, 9391.733633486467, -187500.02235174447, 72839.93188618802, -187500.02235174447, -174028.15658189735, -187500.02235174447, -0.216, 0.974, 0.046, 192.0, 0.0, 0.0, 0.0, 0.0, 0.0, 0.0, 0.0, 0.0, 0.0, 1.7184688118950999E9, 0.0, 2024-06-15 11:26:51.895
115.0, 48211.103464496555, 68343.74437853627, 8863.204284096275, -187500.02235174447, 73090.27142408746, -187500.02235174447, -174172.14651967844, -187500.02235174447, -0.216, 0.974, 0.046, 192.0, 0.0, 0.0, 0.0, 0.0, 0.0, 0.0, 0.0, 0.0, 0.0, 1.7184688118951623E9, 0.0, 2024-06-15 11:26:51.895
116.0, 47914.00407719661, 68009.63050241834, 10581.71815654256, -187500.02235174447, 73184.28286126649, -187500.02235174447, -173733.6052934653, -187500.02235174447, -0.216, 0.974, 0.046, 192.0, 0.0, 0.0, 0.0, 0.0, 0.0, 0.0, 0.0, 0.0, 0.0, 1.7184688118951793E9, 0.0, 2024-06-15 11:26:51.895
117.0, 47959.132249251874, 68113.94609379127, 11525.989952801461, -187500.02235174447, 72829.58302850522, -187500.02235174447, -173479.30949679727, -187500.02235174447, -0.216, 0.974, 0.046, 192.0, 0.0, 0.0, 0.0, 0.0, 0.0, 0.0, 0.0, 0.0, 0.0, 1.7184688118951929E9, 0.0, 2024-06-15 11:26:51.895
119.0, 48232.06940079563, 68381.76469585476, 8760.565073557505, -187500.02235174447, 73034.6379321382, -187500.02235174447, -174175.8122057691, -187500.02235174447, -0.216, 0.974, 0.046, 192.0, 0.0, 0.0, 0.0, 0.0, 0.0, 0.0, 0.0, 0.0, 0.0, 1.7184688118952072E9, 0.0, 2024-06-15 11:26:51.895
120.0, 47934.67944081777, 68021.78985140203, 10220.491614400342, -187500.02235174447, 73169.57541341489, -187500.02235174447, -173807.16488446773, -187500.02235174447, -0.216, 0.974, 0.046, 192.0, 0.0, 0.0, 0.0, 0.0, 0.0, 0.0, 0.0, 0.0, 0.0, 1.718468811895231E9, 0.0, 2024-06-15 11:26:51.895
121.0, 47885.19267859372, 68018.39238624483, 11672.505637706, -187500.02235174447, 72877.46046512848, -187500.02235174447, -173375.6197542691, -187500.02235174447, -0.20600000000000002, 0.9540000000000001, 0.054, 192.0, 249.0, 144.0, 29.0, 208.0, 1.0, 176.0, 0.0, 0.0, 0.0, 1.718468811895265E9, 0.0, 2024-06-15 11:26:51.895
122.0, 48212.556327886145, 68424.76945218677, 10098.85342107456, -187500.02235174447, 72726.85441098863, -187500.02235174447, -173827.81789634444, -187500.02235174447, -0.20600000000000002, 0.9540000000000001, 0.054, 192.0, 0.0, 0.0, 0.0, 0.0, 0.0, 0.0, 0.0, 0.0, 0.0, 1.71846881189528E9, 0.0, 2024-06-15 11:26:51.895
123.0, 48291.65915151348, 68459.2581938813, 8729.384390042353, -187500.02235174447, 73014.94604527307, -187500.02235174447, -174169.19608941034, -187500.02235174447, -0.20600000000000002, 0.9540000000000001, 0.054, 192.0, 0.0, 0.0, 0.0, 0.0, 0.0, 0.0, 0.0, 0.0, 0.0, 1.718468811895293E9, 0.0, 2024-06-15 11:26:51.895
124.0, 48026.50040704017, 68116.13656474788, 9805.822051265484, -187500.02235174447, 73195.34697477186, -187500.02235174447, -173938.4590313982, -187500.02235174447, -0.20600000000000002, 0.9540000000000001, 0.054, 192.0, 0.0, 0.0, 0.0, 0.0, 0.0, 0.0, 0.0, 0.0, 0.0, 1.7184688118953063E9, 0.0, 2024-06-15 11:26:51.895
125.0, 47860.87398062635, 67981.69082184922, 11586.473773297523, -187500.02235174447, 72977.64098377716, -187500.02235174447, -173425.86647580462, -187500.02235174447, -0.20600000000000002, 0.9540000000000001, 0.054, 192.0, 0.0, 0.0, 0.0, 0.0, 0.0, 0.0, 0.0, 0.0, 0.0, 1.7184688118953197E9, 0.0, 2024-06-15 11:26:51.895
126.0, 48183.58846707207, 68393.76758262725, 10413.186003349543, -187500.02235174447, 72722.24995163083, -187500.02235174447, -173794.1338174503, -187500.02235174447, -0.20600000000000002, 0.9540000000000001, 0.054, 192.0, 0.0, 0.0, 0.0, 0.0, 0.0, 0.0, 0.0, 0.0, 0.0, 1.71846881189535E9, 0.0, 2024-06-15 11:26:51.895
127.0, 48293.13436664753, 68474.52443534428, 8722.075369605467, -187500.02235174447, 72978.31153611082, -187500.02235174447, -174198.25335720222, -187500.02235174447, -0.20600000000000002, 0.9540000000000001, 0.054, 192.0, 0.0, 0.0, 0.0, 0.0, 0.0, 0.0, 0.0, 0.0, 0.0, 1.7184688118953688E9, 0.0, 2024-06-15 11:26:51.895
128.0, 48079.384634421425, 68187.66214700487, 9397.545087044846, -187500.02235174447, 73178.60551817484, -187500.02235174447, -174066.02043700463, -187500.02235174447, -0.20600000000000002, 0.9540000000000001, 0.054, 192.0, 0.0, 0.0, 0.0, 0.0, 0.0, 0.0, 0.0, 0.0, 0.0, 1.7184688118953795E9, 0.0, 2024-06-15 11:26:51.895
129.0, 47830.74382910059, 67956.29924014799, 11405.961085076462, -187500.02235174447, 73041.96930431954, -187500.02235174447, -173468.82652864774, -187500.02235174447, -0.20600000000000002, 0.9540000000000001, 0.054, 192.0, 0.0, 0.0, 0.0, 0.0, 0.0, 0.0, 0.0, 0.0, 0.0, 1.718468811895392E9, 0.0, 2024-06-15 11:26:51.895
130.0, 48129.47489374577, 68326.89116321698, 10772.020908835044, -187500.02235174447, 72719.99242544084, -187500.02235174447, -173688.67828711015, -187500.02235174447, -0.20600000000000002, 0.9540000000000001, 0.054, 192.0, 0.0, 0.0, 0.0, 0.0, 0.0, 0.0, 0.0, 0.0, 0.0, 1.7184688118954048E9, 0.0, 2024-06-15 11:26:51.895
131.0, 48292.10618640258, 68489.90243552953, 8846.619289710437, -187500.02235174447, 72923.46035521751, -187500.02235174447, -174150.89001070143, -187500.02235174447, -0.198, 0.9460000000000001, 0.054, 192.0, 249.0, 208.0, 29.0, 144.0, 1.0, 176.0, 0.0, 0.0, 0.0, 1.7184688118954144E9, 0.0, 2024-06-15 11:26:51.895
132.0, 48137.700335705325, 68248.6600576234, 9075.501152932782, -187500.02235174447, 73148.520070138, -187500.02235174447, -174131.62280698094, -187500.02235174447, -0.198, 0.9460000000000001, 0.054, 192.0, 0.0, 0.0, 0.0, 0.0, 0.0, 0.0, 0.0, 0.0, 0.0, 1.7184688118954244E9, 0.0, 2024-06-15 11:26:51.895
133.0, 47886.10910011639, 67983.00957477208, 11072.741278736745, -187500.02235174447, 73141.36751191229, -187500.02235174447, -173591.13527430716, -187500.02235174447, -0.198, 0.9460000000000001, 0.054, 192.0, 0.0, 0.0, 0.0, 0.0, 0.0, 0.0, 0.0, 0.0, 0.0, 1.7184688118954344E9, 0.0, 2024-06-15 11:26:51.895
134.0, 48085.17373623535, 68271.70470615682, 11030.630592182946, -187500.02235174447, 72767.2216614749, -187500.02235174447, -173639.3926905862, -187500.02235174447, -0.198, 0.9460000000000001, 0.054, 192.0, 0.0, 0.0, 0.0, 0.0, 0.0, 0.0, 0.0, 0.0, 0.0, 1.7184688118954449E9, 0.0, 2024-06-15 11:26:51.895
135.0, 48304.82432899765, 68519.96553182192, 8982.741413443258, -187500.02235174447, 72887.87637804466, -187500.02235174447, -174143.8045077091, -187500.02235174447, -0.198, 0.9460000000000001, 0.054, 192.0, 0.0, 0.0, 0.0, 0.0, 0.0, 0.0, 0.0, 0.0, 0.0, 1.7184688118954544E9, 0.0, 2024-06-15 11:26:51.895
136.0, 48184.41548161692, 68323.78427073768, 8781.978044745689, -187500.02235174447, 73114.67952903266, -187500.02235174447, -174196.88990079044, -187500.02235174447, -0.198, 0.9460000000000001, 0.054, 192.0, 0.0, 0.0, 0.0, 0.0, 0.0, 0.0, 0.0, 0.0, 0.0, 1.718468811895465E9, 0.0, 2024-06-15 11:26:51.895
137.0, 47890.66885598527, 68002.81322035947, 10705.792690013968, -187500.02235174447, 73170.69300063765, -187500.02235174447, -173683.0903509963, -187500.02235174447, -0.198, 0.9460000000000001, 0.054, 192.0, 0.0, 0.0, 0.0, 0.0, 0.0, 0.0, 0.0, 0.0, 0.0, 1.7184688118954747E9, 0.0, 2024-06-15 11:26:51.895
138.0, 48005.75798818564, 68184.86817894795, 11260.764153094788, -187500.02235174447, 72799.78815314629, -187500.02235174447, -173547.92935227507, -187500.02235174447, -0.198, 0.9460000000000001, 0.054, 192.0, 0.0, 0.0, 0.0, 0.0, 0.0, 0.0, 0.0, 0.0, 0.0, 1.7184688118954844E9, 0.0, 2024-06-15 11:26:51.895
139.0, 48278.38221530703, 68508.0744037717, 9226.710704172934, -187500.02235174447, 72831.52763027283, -187500.02235174447, -174074.20117547526, -187500.02235174447, -0.198, 0.9460000000000001, 0.054, 192.0, 0.0, 0.0, 0.0, 0.0, 0.0, 0.0, 0.0, 0.0, 0.0, 1.718468811895494E9, 0.0, 2024-06-15 11:26:51.895
140.0, 48224.69332512538, 68365.5373293802, 8557.633585647773, -187500.02235174447, 73093.04304039992, -187500.02235174447, -174235.24549427576, -187500.02235174447, -0.198, 0.9460000000000001, 0.054, 192.0, 0.0, 0.0, 0.0, 0.0, 0.0, 0.0, 0.0, 0.0, 0.0, 1.7184688118955035E9, 0.0, 2024-06-15 11:26:51.895
141.0, 47927.39277212534, 68014.86081062088, 10266.111524833623, -187500.02235174447, 73206.56755048843, -187500.02235174447, -173795.98901224005, -187500.02235174447, -0.194, 0.9480000000000001, 0.046, 192.0, 249.0, 240.0, 29.0, 160.0, 1.0, 112.0, 0.0, 0.0, 0.0, 1.7184688118955135E9, 0.0, 2024-06-15 11:26:51.895
142.0, 47950.83975205896, 68104.78187856458, 11377.842590551685, -187500.02235174447, 72866.44105511201, -187500.02235174447, -173485.5903369892, -187500.02235174447, -0.194, 0.9480000000000001, 0.046, 192.0, 0.0, 0.0, 0.0, 0.0, 0.0, 0.0, 0.0, 0.0, 0.0, 1.7184688118955235E9, 0.0, 2024-06-15 11:26:51.895
143.0, 48273.375424549035, 68501.2124182239, 9507.158041853672, -187500.02235174447, 72800.12342931311, -187500.02235174447, -174006.0283548866, -187500.02235174447, -0.194, 0.9480000000000001, 0.046, 192.0, 0.0, 0.0, 0.0, 0.0, 0.0, 0.0, 0.0, 0.0, 0.0, 1.7184688118955333E9, 0.0, 2024-06-15 11:26:51.895
144.0, 48285.26655259926, 68459.83933923714, 8375.3774613592, -187500.02235174447, 73071.60771746728, -187500.02235174447, -174279.9936866753, -187500.02235174447, -0.194, 0.9480000000000001, 0.046, 192.0, 0.0, 0.0, 0.0, 0.0, 0.0, 0.0, 0.0, 0.0, 0.0, 1.7184688118955433E9, 0.0, 2024-06-15 11:26:51.895
145.0, 48001.19823231676, 68115.53306764759, 9751.328498283447, -187500.02235174447, 73228.02522516552, -187500.02235174447, -173966.33165673396, -187500.02235174447, -0.194, 0.9480000000000001, 0.046, 192.0, 0.0, 0.0, 0.0, 0.0, 0.0, 0.0, 0.0, 0.0, 0.0, 1.7184688118955617E9, 0.0, 2024-06-15 11:26:51.895
146.0, 47911.254812628606, 68048.45548253722, 11320.979752657386, -187500.02235174447, 72947.17555608459, -187500.02235174447, -173514.8487704812, -187500.02235174447, -0.194, 0.9480000000000001, 0.046, 192.0, 0.0, 0.0, 0.0, 0.0, 0.0, 0.0, 0.0, 0.0, 0.0, 1.7184688118955812E9, 0.0, 2024-06-15 11:26:51.895
147.0, 48233.186988018395, 68449.40107457651, 9772.495600282622, -187500.02235174447, 72757.47630089239, -187500.02235174447, -173964.34235147745, -187500.02235174447, -0.194, 0.9480000000000001, 0.046, 192.0, 0.0, 0.0, 0.0, 0.0, 0.0, 0.0, 0.0, 0.0, 0.0, 1.7184688118955917E9, 0.0, 2024-06-15 11:26:51.895
148.0, 48279.969189163356, 68461.47101658238, 8269.452544385498, -187500.02235174447, 73008.9781295035, -187500.02235174447, -174294.96935546034, -187500.02235174447, -0.194, 0.9480000000000001, 0.046, 192.0, 0.0, 0.0, 0.0, 0.0, 0.0, 0.0, 0.0, 0.0, 0.0, 1.718468811895602E9, 0.0, 2024-06-15 11:26:51.895
149.0, 48041.565482803046, 68147.09373081848, 9275.906893719066, -187500.02235174447, 73192.10597182583, -187500.02235174447, -174070.60254461796, -187500.02235174447, -0.194, 0.9480000000000001, 0.046, 192.0, 0.0, 0.0, 0.0, 0.0, 0.0, 0.0, 0.0, 0.0, 0.0, 1.7184688118956165E9, 0.0, 2024-06-15 11:26:51.895
150.0, 47870.52993423104, 68000.3992319583, 11174.06173635265, -187500.02235174447, 73005.84888527976, -187500.02235174447, -173518.8050292498, -187500.02235174447, -0.194, 0.9480000000000001, 0.046, 192.0, 0.0, 0.0, 0.0, 0.0, 0.0, 0.0, 0.0, 0.0, 0.0, 1.718468811895633E9, 0.0, 2024-06-15 11:26:51.895
151.0, 48204.241478948774, 68434.35835055809, 10071.964272494826, -187500.02235174447, 72740.69014080646, -187500.02235174447, -173874.55539400046, -187500.02235174447, -0.194, 0.9480000000000001, 0.046, 192.0, 0.0, 0.0, 0.0, 0.0, 0.0, 0.0, 0.0, 0.0, 0.0, 1.7184688118956428E9, 0.0, 2024-06-15 11:26:51.895
152.0, 48328.159550209, 68558.94697415197, 8210.801566934773, -187500.02235174447, 72980.05497217835, -187500.02235174447, -174318.77396330526, -187500.02235174447, -0.212, 0.9580000000000001, 0.042, 192.0, 249.0, 96.0, 29.0, 240.0, 1.0, 80.0, 0.0, 0.0, 0.0, 1.7184688118957033E9, 0.0, 2024-06-15 11:26:51.895
153.0, 48108.91128884689, 68237.10420574, 8778.625283077394, -187500.02235174447, 73177.57733792989, -187500.02235174447, -174211.08325851956, -187500.02235174447, -0.212, 0.9580000000000001, 0.042, 192.0, 0.0, 0.0, 0.0, 0.0, 0.0, 0.0, 0.0, 0.0, 0.0, 1.718468811895717E9, 0.0, 2024-06-15 11:26:51.895
154.0, 47864.338501016915, 67978.4945223921, 10853.403610396816, -187500.02235174447, 73083.4541420286, -187500.02235174447, -173608.16730358213, -187500.02235174447, -0.212, 0.9580000000000001, 0.042, 192.0, 0.0, 0.0, 0.0, 0.0, 0.0, 0.0, 0.0, 0.0, 0.0, 1.718468811895727E9, 0.0, 2024-06-15 11:26:51.895
155.0, 48153.95005392433, 68353.86971877453, 10312.536098067296, -187500.02235174447, 72752.04482698976, -187500.02235174447, -173810.025907758, -187500.02235174447, -0.212, 0.9580000000000001, 0.042, 192.0, 0.0, 0.0, 0.0, 0.0, 0.0, 0.0, 0.0, 0.0, 0.0, 1.7184688118957372E9, 0.0, 2024-06-15 11:26:51.895
156.0, 48332.98752701134, 68541.91494487703, 8229.308811343768, -187500.02235174447, 72928.37773899767, -187500.02235174447, -174310.28030041224, -187500.02235174447, -0.212, 0.9580000000000001, 0.042, 192.0, 0.0, 0.0, 0.0, 0.0, 0.0, 0.0, 0.0, 0.0, 0.0, 1.7184688118957472E9, 0.0, 2024-06-15 11:26:51.895
157.0, 48191.00924623123, 68315.38001482248, 8314.156033296113, -187500.02235174447, 73164.16629125671, -187500.02235174447, -174329.88278029952, -187500.02235174447, -0.212, 0.9580000000000001, 0.042, 192.0, 0.0, 0.0, 0.0, 0.0, 0.0, 0.0, 0.0, 0.0, 0.0, 1.7184688118957567E9, 0.0, 2024-06-15 11:26:51.895
158.0, 47890.19946935171, 68002.94733082621, 10388.19675304851, -187500.02235174447, 73154.15270974072, -187500.02235174447, -173752.82779369687, -187500.02235174447, -0.212, 0.9580000000000001, 0.042, 192.0, 0.0, 0.0, 0.0, 0.0, 0.0, 0.0, 0.0, 0.0, 0.0, 1.7184688118957818E9, 0.0, 2024-06-15 11:26:51.895
159.0, 48072.14266921791, 68273.9175288579, 10483.258722216931, -187500.02235174447, 72759.68912359347, -187500.02235174447, -173748.98329365056, -187500.02235174447, -0.212, 0.9580000000000001, 0.042, 192.0, 0.0, 0.0, 0.0, 0.0, 0.0, 0.0, 0.0, 0.0, 0.0, 1.7184688118957908E9, 0.0, 2024-06-15 11:26:51.895
160.0, 48331.24409094383, 68574.4367330595, 8278.996739267915, -187500.02235174447, 72862.3953893656, -187500.02235174447, -174310.95085274588, -187500.02235174447, -0.212, 0.9580000000000001, 0.042, 192.0, 0.0, 0.0, 0.0, 0.0, 0.0, 0.0, 0.0, 0.0, 0.0, 1.7184688118958E9, 0.0, 2024-06-15 11:26:51.895
161.0, 48237.657336909455, 68402.28359726473, 7873.625501826466, -187500.02235174447, 73118.47932559006, -187500.02235174447, -174433.84074376116, -187500.02235174447, -0.212, 0.9580000000000001, 0.042, 192.0, 0.0, 0.0, 0.0, 0.0, 0.0, 0.0, 0.0, 0.0, 0.0, 1.718468811895809E9, 0.0, 2024-06-15 11:26:51.895
162.0, 47933.315984406, 68051.87529943888, 9795.450841838223, -187500.02235174447, 73190.74251541407, -187500.02235174447, -173915.52614158703, -187500.02235174447, -0.214, 0.96, 0.036000000000000004, 192.0, 249.0, 80.0, 30.0, 0.0, 1.0, 32.0, 0.0, 0.0, 0.0, 1.7184688118958185E9, 0.0, 2024-06-15 11:26:51.895
163.0, 48028.9367471858, 68212.11495543897, 10490.008949042434, -187500.02235174447, 72820.59762723418, -187500.02235174447, -173730.27488354145, -187500.02235174447, -0.214, 0.96, 0.036000000000000004, 192.0, 0.0, 0.0, 0.0, 0.0, 0.0, 0.0, 0.0, 0.0, 0.0, 1.7184688118958273E9, 0.0, 2024-06-15 11:26:51.895
164.0, 48322.3033931617, 68560.15396835256, 8363.441629820065, -187500.02235174447, 72823.95038890248, -187500.02235174447, -174293.04710543717, -187500.02235174447, -0.214, 0.96, 0.036000000000000004, 192.0, 0.0, 0.0, 0.0, 0.0, 0.0, 0.0, 0.0, 0.0, 0.0, 1.7184688118958364E9, 0.0, 2024-06-15 11:26:51.895
165.0, 48249.906092870966, 68407.60331244509, 7531.375590726804, -187500.02235174447, 73068.52317673244, -187500.02235174447, -174486.65791590905, -187500.02235174447, -0.214, 0.96, 0.036000000000000004, 192.0, 0.0, 0.0, 0.0, 0.0, 0.0, 0.0, 0.0, 0.0, 0.0, 1.7184688118958454E9, 0.0, 2024-06-15 11:26:51.895
166.0, 47962.32854870898, 68062.40297107732, 9234.556166476747, -187500.02235174447, 73204.46648650963, -187500.02235174447, -174053.21288743173, -187500.02235174447, -0.214, 0.96, 0.036000000000000004, 192.0, 0.0, 0.0, 0.0, 0.0, 0.0, 0.0, 0.0, 0.0, 0.0, 1.7184688118958545E9, 0.0, 2024-06-15 11:26:51.895
167.0, 47983.56270594153, 68136.87898360241, 10487.974940297001, -187500.02235174447, 72907.70237537651, -187500.02235174447, -173728.73261317404, -187500.02235174447, -0.214, 0.96, 0.036000000000000004, 192.0, 0.0, 0.0, 0.0, 0.0, 0.0, 0.0, 0.0, 0.0, 0.0, 1.7184688118958633E9, 0.0, 2024-06-15 11:26:51.895
168.0, 48303.5502795637, 68535.83527038519, 8641.698496544182, -187500.02235174447, 72801.688051425, -187500.02235174447, -174250.80230841666, -187500.02235174447, -0.214, 0.96, 0.036000000000000004, 192.0, 0.0, 0.0, 0.0, 0.0, 0.0, 0.0, 0.0, 0.0, 0.0, 1.7184688118958728E9, 0.0, 2024-06-15 11:26:51.895
169.0, 48311.01576221178, 68495.98211002137, 7400.439071707616, -187500.02235174447, 73065.41628425317, -187500.02235174447, -174551.18740215153, -187500.02235174447, -0.214, 0.96, 0.036000000000000004, 192.0, 0.0, 0.0, 0.0, 0.0, 0.0, 0.0, 0.0, 0.0, 0.0, 1.718468811895882E9, 0.0, 2024-06-15 11:26:51.895
170.0, 48010.07187486552, 68120.8304310835, 8787.230704692687, -187500.02235174447, 73212.60252149135, -187500.02235174447, -174217.58761615606, -187500.02235174447, -0.214, 0.96, 0.036000000000000004, 192.0, 0.0, 0.0, 0.0, 0.0, 0.0, 0.0, 0.0, 0.0, 0.0, 1.7184688118959076E9, 0.0, 2024-06-15 11:26:51.895
171.0, 47918.027391198564, 68071.41072409281, 10547.095304381288, -187500.02235174447, 72961.88300393618, -187500.02235174447, -173708.97367107557, -187500.02235174447, -0.214, 0.96, 0.036000000000000004, 192.0, 0.0, 0.0, 0.0, 0.0, 0.0, 0.0, 0.0, 0.0, 0.0, 1.71846881189592E9, 0.0, 2024-06-15 11:26:51.895
172.0, 48260.34435753159, 68499.78190657878, 9114.393188285016, -187500.02235174447, 72756.71634158092, -187500.02235174447, -174143.37982456444, -187500.02235174447, -0.216, 0.964, 0.026000000000000002, 192.0, 249.0, 64.0, 30.0, 32.0, 0.0, 208.0, 0.0, 0.0, 0.0, 1.71846881189593E9, 0.0, 2024-06-15 11:26:51.895
173.0, 48332.49578863332, 68536.7293401634, 7527.374628469304, -187500.02235174447, 73013.82845805031, -187500.02235174447, -174509.72491618694, -187500.02235174447, -0.216, 0.964, 0.026000000000000002, 192.0, 0.0, 0.0, 0.0, 0.0, 0.0, 0.0, 0.0, 0.0, 0.0, 1.7184688118959396E9, 0.0, 2024-06-15 11:26:51.895
174.0, 48096.46136718528, 68214.26072290668, 8493.193506383122, -187500.02235174447, 73218.54808551646, -187500.02235174447, -174310.10148645658, -187500.02235174447, -0.216, 0.964, 0.026000000000000002, 192.0, 0.0, 0.0, 0.0, 0.0, 0.0, 0.0, 0.0, 0.0, 0.0, 1.7184688118959494E9, 0.0, 2024-06-15 11:26:51.895
175.0, 47890.981780407645, 68033.07748235196, 10545.173054358133, -187500.02235174447, 73048.87599335623, -187500.02235174447, -173715.72389790107, -187500.02235174447, -0.216, 0.964, 0.026000000000000002, 192.0, 0.0, 0.0, 0.0, 0.0, 0.0, 0.0, 0.0, 0.0, 0.0, 1.7184688118959594E9, 0.0, 2024-06-15 11:26:51.895
176.0, 48210.20939471834, 68437.86757443757, 9611.80890939342, -187500.02235174447, 72751.30721942273, -187500.02235174447, -174025.36261384044, -187500.02235174447, -0.216, 0.964, 0.026000000000000002, 192.0, 0.0, 0.0, 0.0, 0.0, 0.0, 0.0, 0.0, 0.0, 0.0, 1.718468811895985E9, 0.0, 2024-06-15 11:26:51.895
177.0, 48348.678451618965, 68563.14910210957, 7704.489851533157, -187500.02235174447, 72977.50687331044, -187500.02235174447, -174482.56754667373, -187500.02235174447, -0.216, 0.964, 0.026000000000000002, 192.0, 0.0, 0.0, 0.0, 0.0, 0.0, 0.0, 0.0, 0.0, 0.0, 1.7184688118960102E9, 0.0, 2024-06-15 11:26:51.896
178.0, 48165.036519174166, 68288.31205228712, 8204.744244187385, -187500.02235174447, 73201.91838764172, -187500.02235174447, -174410.170246383, -187500.02235174447, -0.216, 0.964, 0.026000000000000002, 192.0, 0.0, 0.0, 0.0, 0.0, 0.0, 0.0, 0.0, 0.0, 0.0, 1.7184688118960204E9, 0.0, 2024-06-15 11:26:51.896
179.0, 47884.00803613759, 68006.63536866133, 10397.53978223083, -187500.02235174447, 73121.58621806935, -187500.02235174447, -173781.3262678774, -187500.02235174447, -0.216, 0.964, 0.026000000000000002, 192.0, 0.0, 0.0, 0.0, 0.0, 0.0, 0.0, 0.0, 0.0, 0.0, 1.718468811896033E9, 0.0, 2024-06-15 11:26:51.896
180.0, 48168.83631573157, 68376.64614637449, 10049.858397228527, -187500.02235174447, 72774.01659178932, -187500.02235174447, -173935.64271159683, -187500.02235174447, -0.216, 0.964, 0.026000000000000002, 192.0, 0.0, 0.0, 0.0, 0.0, 0.0, 0.0, 0.0, 0.0, 0.0, 1.7184688118960593E9, 0.0, 2024-06-15 11:26:51.896
181.0, 48361.93303608096, 68584.67383202002, 7934.042267089161, -187500.02235174447, 72938.74894842494, -187500.02235174447, -174466.183717988, -187500.02235174447, -0.216, 0.964, 0.026000000000000002, 192.0, 0.0, 0.0, 0.0, 0.0, 0.0, 0.0, 0.0, 0.0, 0.0, 1.7184688118960848E9, 0.0, 2024-06-15 11:26:51.896
182.0, 48170.44564133235, 68305.0758606286, 8026.958468789872, -187500.02235174447, 73143.9156107802, -187500.02235174447, -174439.36162464163, -187500.02235174447, -0.222, 0.97, 0.024, 192.0, 249.0, 16.0, 30.0, 80.0, 0.0, 192.0, 0.0, 0.0, 0.0, 1.7184688118960953E9, 0.0, 2024-06-15 11:26:51.896
183.0, 47887.226687339156, 67999.92984532475, 10213.87549804157, -187500.02235174447, 73161.52878541098, -187500.02235174447, -173829.74014636758, -187500.02235174447, -0.222, 0.97, 0.024, 192.0, 0.0, 0.0, 0.0, 0.0, 0.0, 0.0, 0.0, 0.0, 0.0, 1.7184688118961108E9, 0.0, 2024-06-15 11:26:51.896
184.0, 48087.74418684771, 68287.01565110871, 10504.64934166066, -187500.02235174447, 72802.29154852529, -187500.02235174447, -173798.13477970776, -187500.02235174447, -0.222, 0.97, 0.024, 192.0, 0.0, 0.0, 0.0, 0.0, 0.0, 0.0, 0.0, 0.0, 0.0, 1.7184688118961277E9, 0.0, 2024-06-15 11:26:51.896
185.0, 48340.363602681595, 68583.66800351955, 8337.066571362802, -187500.02235174447, 72877.97455525096, -187500.02235174447, -174350.4016817095, -187500.02235174447, -0.222, 0.97, 0.024, 192.0, 0.0, 0.0, 0.0, 0.0, 0.0, 0.0, 0.0, 0.0, 0.0, 1.718468811896143E9, 0.0, 2024-06-15 11:26:51.896
186.0, 48243.804066634664, 68407.37979500054, 7913.702179634832, -187500.02235174447, 73131.39863388523, -187500.02235174447, -174464.35087494267, -187500.02235174447, -0.222, 0.97, 0.024, 192.0, 0.0, 0.0, 0.0, 0.0, 0.0, 0.0, 0.0, 0.0, 0.0, 1.7184688118961568E9, 0.0, 2024-06-15 11:26:51.896
187.0, 47940.93792926525, 68057.37382857488, 9945.609861088975, -187500.02235174447, 73222.57139951842, -187500.02235174447, -173938.83901105393, -187500.02235174447, -0.222, 0.97, 0.024, 192.0, 0.0, 0.0, 0.0, 0.0, 0.0, 0.0, 0.0, 0.0, 0.0, 1.7184688118961675E9, 0.0, 2024-06-15 11:26:51.896
188.0, 48029.07085765253, 68220.47450786525, 10881.34329096595, -187500.02235174447, 72860.92017423155, -187500.02235174447, -173704.32450822886, -187500.02235174447, -0.222, 0.97, 0.024, 192.0, 0.0, 0.0, 0.0, 0.0, 0.0, 0.0, 0.0, 0.0, 0.0, 1.7184688118961782E9, 0.0, 2024-06-15 11:26:51.896
189.0, 48343.5599021387, 68586.0372884318, 8775.697204553748, -187500.02235174447, 72842.41292982256, -187500.02235174447, -174280.70894249785, -187500.02235174447, -0.222, 0.97, 0.024, 192.0, 0.0, 0.0, 0.0, 0.0, 0.0, 0.0, 0.0, 0.0, 0.0, 1.7184688118961885E9, 0.0, 2024-06-15 11:26:51.896
190.0, 48289.669846256955, 68458.90056597002, 7862.829609254552, -187500.02235174447, 73109.22570338556, -187500.02235174447, -174499.80074164877, -187500.02235174447, -0.222, 0.97, 0.024, 192.0, 0.0, 0.0, 0.0, 0.0, 0.0, 0.0, 0.0, 0.0, 0.0, 1.7184688118962135E9, 0.0, 2024-06-15 11:26:51.896
191.0, 47974.6220081594, 68083.23479690967, 9647.929328433196, -187500.02235174447, 73239.51402181554, -187500.02235174447, -174043.51223033815, -187500.02235174447, -0.222, 0.97, 0.024, 192.0, 0.0, 0.0, 0.0, 0.0, 0.0, 0.0, 0.0, 0.0, 0.0, 1.718468812101372E9, 0.0, 2024-06-15 11:26:52.101
192.0, 47964.89899932135, 68138.01892256962, 11163.332899014104, -187500.02235174447, 72933.47393673348, -187500.02235174447, -173619.6784519766, -187500.02235174447, -0.222, 0.97, 0.024, 192.0, 0.0, 0.0, 0.0, 0.0, 0.0, 0.0, 0.0, 0.0, 0.0, 1.7184688121014E9, 0.0, 2024-06-15 11:26:52.101
193.0, 48324.67267807397, 68574.4367330595, 9304.584181855224, -187500.02235174447, 72810.3381765292, -187500.02235174447, -174162.53526956265, -187500.02235174447, -0.218, 0.978, 0.024, 192.0, 249.0, 48.0, 30.0, 144.0, 0.0, 192.0, 0.0, 0.0, 0.0, 1.718468812101411E9, 0.0, 2024-06-15 11:26:52.101
194.0, 48328.159550209, 68512.18712475146, 7940.345459025558, -187500.02235174447, 73069.43959825512, -187500.02235174447, -174474.8338430922, -187500.02235174447, -0.218, 0.978, 0.024, 192.0, 0.0, 0.0, 0.0, 0.0, 0.0, 0.0, 0.0, 0.0, 0.0, 1.7184688121014216E9, 0.0, 2024-06-15 11:26:52.101
195.0, 48034.70349725527, 68138.30949524755, 9355.769676657877, -187500.02235174447, 73233.90373395727, -187500.02235174447, -174126.16898133387, -187500.02235174447, -0.218, 0.978, 0.024, 192.0, 0.0, 0.0, 0.0, 0.0, 0.0, 0.0, 0.0, 0.0, 0.0, 1.718468812101434E9, 0.0, 2024-06-15 11:26:52.101
196.0, 47902.67174275777, 68038.33014229896, 11339.107017410639, -187500.02235174447, 72995.41062061914, -187500.02235174447, -173540.37446264917, -187500.02235174447, -0.218, 0.978, 0.024, 192.0, 0.0, 0.0, 0.0, 0.0, 0.0, 0.0, 0.0, 0.0, 0.0, 1.7184688121014445E9, 0.0, 2024-06-15 11:26:52.101
197.0, 48261.774869176734, 68490.57298786318, 9913.356293839966, -187500.02235174447, 72753.60944910163, -187500.02235174447, -173962.93419157676, -187500.02235174447, -0.218, 0.978, 0.024, 192.0, 0.0, 0.0, 0.0, 0.0, 0.0, 0.0, 0.0, 0.0, 0.0, 1.7184688121014545E9, 0.0, 2024-06-15 11:26:52.101
198.0, 48376.75224265483, 68580.5834627847, 8110.017551185793, -187500.02235174447, 73030.68167336962, -187500.02235174447, -174399.35200206662, -187500.02235174447, -0.218, 0.978, 0.024, 192.0, 0.0, 0.0, 0.0, 0.0, 0.0, 0.0, 0.0, 0.0, 0.0, 1.7184688121014888E9, 0.0, 2024-06-15 11:26:52.101
199.0, 48153.05598414612, 68271.50354045672, 9022.147538917963, -187500.02235174447, 73255.00378072307, -187500.02235174447, -174230.01518607323, -187500.02235174447, -0.218, 0.978, 0.024, 192.0, 0.0, 0.0, 0.0, 0.0, 0.0, 0.0, 0.0, 0.0, 0.0, 1.7184688121014984E9, 0.0, 2024-06-15 11:26:52.101
200.0, 47900.32480958996, 68040.47590976667, 11267.603786898111, -187500.02235174447, 73093.02068865547, -187500.02235174447, -173583.7815503814, -187500.02235174447, -0.218, 0.978, 0.024, 192.0, 0.0, 0.0, 0.0, 0.0, 0.0, 0.0, 0.0, 0.0, 0.0, 1.7184688121015236E9, 0.0, 2024-06-15 11:26:52.101
201.0, 48220.893528567976, 68456.77715024677, 10395.371663018665, -187500.02235174447, 72758.90681253753, -187500.02235174447, -173869.61565847584, -187500.02235174447, -0.218, 0.978, 0.024, 192.0, 0.0, 0.0, 0.0, 0.0, 0.0, 0.0, 0.0, 0.0, 0.0, 1.718468812101533E9, 0.0, 2024-06-15 11:26:52.101
202.0, 48397.98639988738, 68620.43662314852, 8277.856800300695, -187500.02235174447, 72991.20849266154, -187500.02235174447, -174394.03228688627, -187500.02235174447, -0.218, 0.978, 0.024, 192.0, 0.0, 0.0, 0.0, 0.0, 0.0, 0.0, 0.0, 0.0, 0.0, 1.718468812101542E9, 0.0, 2024-06-15 11:26:52.101
203.0, 48182.292065893664, 68311.8260874541, 8730.770198198581, -187500.02235174447, 73214.2341988366, -187500.02235174447, -174312.91780625796, -187500.02235174447, -0.222, 0.976, 0.028, 192.0, 249.0, 16.0, 30.0, 128.0, 0.0, 224.0, 0.0, 0.0, 0.0, 1.718468812101551E9, 0.0, 2024-06-15 11:26:52.101
204.0, 47863.24326553861, 67988.21753123016, 11108.995808243253, -187500.02235174447, 73133.18677344164, -187500.02235174447, -173618.6726234761, -187500.02235174447, -0.222, 0.976, 0.028, 192.0, 0.0, 0.0, 0.0, 0.0, 0.0, 0.0, 0.0, 0.0, 0.0, 1.71846881210156E9, 0.0, 2024-06-15 11:26:52.101
205.0, 48130.32426003507, 68339.11756743402, 10896.341311495462, -187500.02235174447, 72746.38983564256, -187500.02235174447, -173707.3419937303, -187500.02235174447, -0.222, 0.976, 0.028, 192.0, 0.0, 0.0, 0.0, 0.0, 0.0, 0.0, 0.0, 0.0, 0.0, 1.7184688121015697E9, 0.0, 2024-06-15 11:26:52.101
206.0, 48403.14965285655, 68633.75826284388, 8559.2205595041, -187500.02235174447, 72932.02107334389, -187500.02235174447, -174318.21516969387, -187500.02235174447, -0.222, 0.976, 0.028, 192.0, 0.0, 0.0, 0.0, 0.0, 0.0, 0.0, 0.0, 0.0, 0.0, 1.7184688121015785E9, 0.0, 2024-06-15 11:26:52.101
207.0, 48243.178217789915, 68391.48770469282, 8478.44135504262, -187500.02235174447, 73185.2216345336, -187500.02235174447, -174370.0041615968, -187500.02235174447, -0.222, 0.976, 0.028, 192.0, 0.0, 0.0, 0.0, 0.0, 0.0, 0.0, 0.0, 0.0, 0.0, 1.7184688121015873E9, 0.0, 2024-06-15 11:26:52.101
208.0, 47874.93322788873, 67993.73841211062, 10806.75551971859, -187500.02235174447, 73183.85817812184, -187500.02235174447, -173705.1068192848, -187500.02235174447, -0.222, 0.976, 0.028, 192.0, 0.0, 0.0, 0.0, 0.0, 0.0, 0.0, 0.0, 0.0, 0.0, 1.7184688121015964E9, 0.0, 2024-06-15 11:26:52.101
209.0, 48044.582968304516, 68243.02741802066, 11273.504647434313, -187500.02235174447, 72779.91745232552, -187500.02235174447, -173590.06239057332, -187500.02235174447, -0.222, 0.976, 0.028, 192.0, 0.0, 0.0, 0.0, 0.0, 0.0, 0.0, 0.0, 0.0, 0.0, 1.7184688121016054E9, 0.0, 2024-06-15 11:26:52.101
210.0, 48356.233341244864, 68600.83414326122, 8916.312028922084, -187500.02235174447, 72855.13107241763, -187500.02235174447, -174217.0735260336, -187500.02235174447, -0.222, 0.976, 0.028, 192.0, 0.0, 0.0, 0.0, 0.0, 0.0, 0.0, 0.0, 0.0, 0.0, 1.7184688121016142E9, 0.0, 2024-06-15 11:26:52.101
211.0, 48270.514401258755, 68437.37583605955, 8328.528204980876, -187500.02235174447, 73128.71642455058, -187500.02235174447, -174368.28307727375, -187500.02235174447, -0.222, 0.976, 0.028, 192.0, 0.0, 0.0, 0.0, 0.0, 0.0, 0.0, 0.0, 0.0, 0.0, 1.718468812101623E9, 0.0, 2024-06-15 11:26:52.101
212.0, 47933.65126057283, 68050.62360174938, 10430.39684658013, -187500.02235174447, 73225.1865536197, -187500.02235174447, -173802.49336987655, -187500.02235174447, -0.222, 0.976, 0.028, 192.0, 0.0, 0.0, 0.0, 0.0, 0.0, 0.0, 0.0, 0.0, 0.0, 1.718468812101632E9, 0.0, 2024-06-15 11:26:52.101
213.0, 48011.860014421945, 68184.6446615034, 11523.173633000093, -187500.02235174447, 72871.51490110336, -187500.02235174447, -173516.92748271555, -187500.02235174447, -0.22, 0.978, 0.032, 192.0, 249.0, 32.0, 30.0, 144.0, 1.0, 0.0, 0.0, 0.0, 0.0, 1.7184688121016407E9, 0.0, 2024-06-15 11:26:52.101
214.0, 48355.33927146665, 68597.68254729302, 9308.696902835001, -187500.02235174447, 72824.6879964695, -187500.02235174447, -174140.58585650753, -187500.02235174447, -0.22, 0.978, 0.032, 192.0, 0.0, 0.0, 0.0, 0.0, 0.0, 0.0, 0.0, 0.0, 0.0, 1.7184688121016498E9, 0.0, 2024-06-15 11:26:52.101
215.0, 48318.79416928222, 68504.09579325865, 8207.806433177762, -187500.02235174447, 73106.02940392845, -187500.02235174447, -174411.53370279475, -187500.02235174447, -0.22, 0.978, 0.032, 192.0, 0.0, 0.0, 0.0, 0.0, 0.0, 0.0, 0.0, 0.0, 0.0, 1.7184688121016586E9, 0.0, 2024-06-15 11:26:52.101
216.0, 47974.75611862614, 68099.5739221065, 9987.519381942677, -187500.02235174447, 73237.92704795922, -187500.02235174447, -173951.55715364902, -187500.02235174447, -0.22, 0.978, 0.032, 192.0, 0.0, 0.0, 0.0, 0.0, 0.0, 0.0, 0.0, 0.0, 0.0, 1.7184688121016674E9, 0.0, 2024-06-15 11:26:52.101
217.0, 47932.89130126135, 68103.15020121935, 11655.294794475412, -187500.02235174447, 72927.08133781927, -187500.02235174447, -173477.67781945204, -187500.02235174447, -0.22, 0.978, 0.032, 192.0, 0.0, 0.0, 0.0, 0.0, 0.0, 0.0, 0.0, 0.0, 0.0, 1.7184688121016765E9, 0.0, 2024-06-15 11:26:52.101
218.0, 48314.30146864671, 68556.91296540653, 9759.017498376072, -187500.02235174447, 72765.50057715185, -187500.02235174447, -174038.03605294658, -187500.02235174447, -0.22, 0.978, 0.032, 192.0, 0.0, 0.0, 0.0, 0.0, 0.0, 0.0, 0.0, 0.0, 0.0, 1.7184688121016853E9, 0.0, 2024-06-15 11:26:52.101
219.0, 48361.03896630275, 68559.14813985207, 8184.895895111072, -187500.02235174447, 73059.24720278349, -187500.02235174447, -174430.37622337058, -187500.02235174447, -0.22, 0.978, 0.032, 192.0, 0.0, 0.0, 0.0, 0.0, 0.0, 0.0, 0.0, 0.0, 0.0, 1.718468812101694E9, 0.0, 2024-06-15 11:26:52.101
220.0, 48053.098982941985, 68178.49793177818, 9524.279478106437, -187500.02235174447, 73230.99800717807, -187500.02235174447, -174108.22053053626, -187500.02235174447, -0.22, 0.978, 0.032, 192.0, 0.0, 0.0, 0.0, 0.0, 0.0, 0.0, 0.0, 0.0, 0.0, 1.7184688121017032E9, 0.0, 2024-06-15 11:26:52.101
221.0, 47880.09648085791, 68042.59932548992, 11619.643762069198, -187500.02235174447, 72995.6788415526, -187500.02235174447, -173492.60878474818, -187500.02235174447, -0.22, 0.978, 0.032, 192.0, 0.0, 0.0, 0.0, 0.0, 0.0, 0.0, 0.0, 0.0, 0.0, 1.7184688121017125E9, 0.0, 2024-06-15 11:26:52.101
222.0, 48246.77684864722, 68490.10360122962, 10231.578079650173, -187500.02235174447, 72726.1615069105, -187500.02235174447, -173922.52223760157, -187500.02235174447, -0.22, 0.978, 0.032, 192.0, 0.0, 0.0, 0.0, 0.0, 0.0, 0.0, 0.0, 0.0, 0.0, 1.7184688121017213E9, 0.0, 2024-06-15 11:26:52.101
223.0, 48368.57150418419, 68591.13348616762, 8271.888884531127, -187500.02235174447, 73006.74295505798, -187500.02235174447, -174413.14302839554, -187500.02235174447, -0.218, 0.968, 0.038, 192.0, 249.0, 48.0, 30.0, 64.0, 1.0, 48.0, 0.0, 0.0, 0.0, 1.71846881210173E9, 0.0, 2024-06-15 11:26:52.101
224.0, 48099.00946605319, 68231.02453124816, 9114.884926663033, -187500.02235174447, 73212.9825011471, -187500.02235174447, -174235.0219768312, -187500.02235174447, -0.218, 0.968, 0.038, 192.0, 0.0, 0.0, 0.0, 0.0, 0.0, 0.0, 0.0, 0.0, 0.0, 1.718468812101739E9, 0.0, 2024-06-15 11:26:52.101
225.0, 47833.26957622404, 67972.9959932561, 11464.969690438473, -187500.02235174447, 73056.43088298212, -187500.02235174447, -173534.51830560187, -187500.02235174447, -0.218, 0.968, 0.038, 192.0, 0.0, 0.0, 0.0, 0.0, 0.0, 0.0, 0.0, 0.0, 0.0, 1.7184688121017478E9, 0.0, 2024-06-15 11:26:52.101
226.0, 48152.72070797929, 68375.41680042945, 10706.731463281092, -187500.02235174447, 72704.63677700005, -187500.02235174447, -173784.20964291212, -187500.02235174447, -0.218, 0.968, 0.038, 192.0, 0.0, 0.0, 0.0, 0.0, 0.0, 0.0, 0.0, 0.0, 0.0, 1.7184688121017568E9, 0.0, 2024-06-15 11:26:52.101
227.0, 48348.745506852334, 68571.17337836903, 8477.524933519951, -187500.02235174447, 72932.87043963319, -187500.02235174447, -174341.9080188165, -187500.02235174447, -0.218, 0.968, 0.038, 192.0, 0.0, 0.0, 0.0, 0.0, 0.0, 0.0, 0.0, 0.0, 0.0, 1.7184688121017659E9, 0.0, 2024-06-15 11:26:52.101
228.0, 48154.397088813435, 68296.00105237974, 8800.194716476764, -187500.02235174447, 73176.39269547375, -187500.02235174447, -174296.31046012766, -187500.02235174447, -0.218, 0.968, 0.038, 192.0, 0.0, 0.0, 0.0, 0.0, 0.0, 0.0, 0.0, 0.0, 0.0, 1.7184688121017747E9, 0.0, 2024-06-15 11:26:52.101
229.0, 47852.22385552214, 67994.14074351081, 11182.018957378741, -187500.02235174447, 73138.77470955548, -187500.02235174447, -173614.11286760724, -187500.02235174447, -0.218, 0.968, 0.038, 192.0, 0.0, 0.0, 0.0, 0.0, 0.0, 0.0, 0.0, 0.0, 0.0, 1.7184688121017835E9, 0.0, 2024-06-15 11:26:52.101
230.0, 48094.89674507341, 68316.22938111179, 11114.986075757275, -187500.02235174447, 72740.26545766181, -187500.02235174447, -173666.61711533275, -187500.02235174447, -0.218, 0.968, 0.038, 192.0, 0.0, 0.0, 0.0, 0.0, 0.0, 0.0, 0.0, 0.0, 0.0, 1.718468812101792E9, 0.0, 2024-06-15 11:26:52.101
231.0, 48386.564658470714, 68631.83601282073, 8716.353323024909, -187500.02235174447, 72903.76846835238, -187500.02235174447, -174311.9343295019, -187500.02235174447, -0.218, 0.968, 0.038, 192.0, 0.0, 0.0, 0.0, 0.0, 0.0, 0.0, 0.0, 0.0, 0.0, 1.7184688121018012E9, 0.0, 2024-06-15 11:26:52.101
232.0, 48259.07030809764, 68410.48668747982, 8479.134259120734, -187500.02235174447, 73181.6230036763, -187500.02235174447, -174421.1226011661, -187500.02235174447, -0.218, 0.968, 0.038, 192.0, 0.0, 0.0, 0.0, 0.0, 0.0, 0.0, 0.0, 0.0, 0.0, 1.71846881210181E9, 0.0, 2024-06-15 11:26:52.101
233.0, 47906.00215268161, 68030.52938348406, 10734.827606061412, -187500.02235174447, 73216.64818723776, -187500.02235174447, -173798.5818145969, -187500.02235174447, -0.218, 0.968, 0.038, 192.0, 0.0, 0.0, 0.0, 0.0, 0.0, 0.0, 0.0, 0.0, 0.0, 1.7184688121018188E9, 0.0, 2024-06-15 11:26:52.101
234.0, 48012.754084200154, 68219.66984506487, 11404.888201342608, -187500.02235174447, 72780.99033605937, -187500.02235174447, -173592.74459990795, -187500.02235174447, -0.20800000000000002, 0.968, 0.036000000000000004, 192.0, 249.0, 128.0, 30.0, 64.0, 1.0, 32.0, 0.0, 0.0, 0.0, 1.718468812101828E9, 0.0, 2024-06-15 11:26:52.101
235.0, 48355.62984414457, 68609.48426836541, 9052.970594521832, -187500.02235174447, 72830.3429878167, -187500.02235174447, -174237.79359314367, -187500.02235174447, -0.20800000000000002, 0.968, 0.036000000000000004, 192.0, 0.0, 0.0, 0.0, 0.0, 0.0, 0.0, 0.0, 0.0, 0.0, 1.7184688121018367E9, 0.0, 2024-06-15 11:26:52.101
236.0, 48290.67567475745, 68453.3573333451, 8299.582695911253, -187500.02235174447, 73130.75043329602, -187500.02235174447, -174449.30815092425, -187500.02235174447, -0.20800000000000002, 0.968, 0.036000000000000004, 192.0, 0.0, 0.0, 0.0, 0.0, 0.0, 0.0, 0.0, 0.0, 0.0, 1.7184688121018455E9, 0.0, 2024-06-15 11:26:52.101
237.0, 47948.42576365778, 68051.87529943888, 10306.411720086542, -187500.02235174447, 73238.57524854843, -187500.02235174447, -173913.1568566748, -187500.02235174447, -0.20800000000000002, 0.968, 0.036000000000000004, 192.0, 0.0, 0.0, 0.0, 0.0, 0.0, 0.0, 0.0, 0.0, 0.0, 1.7184688121018546E9, 0.0, 2024-06-15 11:26:52.101
238.0, 47958.77462134059, 68124.13848926288, 11570.33581380079, -187500.02235174447, 72855.68986602902, -187500.02235174447, -173540.19564869354, -187500.02235174447, -0.20800000000000002, 0.968, 0.036000000000000004, 192.0, 0.0, 0.0, 0.0, 0.0, 0.0, 0.0, 0.0, 0.0, 0.0, 1.7184688121018634E9, 0.0, 2024-06-15 11:26:52.101
239.0, 48313.47445410186, 68553.64961071606, 9453.379744694203, -187500.02235174447, 72773.23428073339, -187500.02235174447, -174131.5110482587, -187500.02235174447, -0.20800000000000002, 0.968, 0.036000000000000004, 192.0, 0.0, 0.0, 0.0, 0.0, 0.0, 0.0, 0.0, 0.0, 0.0, 1.7184688121018724E9, 0.0, 2024-06-15 11:26:52.101
240.0, 48338.128428236065, 68526.69340690297, 8204.967761631939, -187500.02235174447, 73092.79717121091, -187500.02235174447, -174461.5792586302, -187500.02235174447, -0.20800000000000002, 0.968, 0.036000000000000004, 192.0, 0.0, 0.0, 0.0, 0.0, 0.0, 0.0, 0.0, 0.0, 0.0, 1.7184688121018813E9, 0.0, 2024-06-15 11:26:52.101
241.0, 48002.98637187319, 68129.70407363225, 9847.195130252258, -187500.02235174447, 73251.04752195449, -187500.02235174447, -174048.9884077297, -187500.02235174447, -0.20800000000000002, 0.968, 0.036000000000000004, 192.0, 0.0, 0.0, 0.0, 0.0, 0.0, 0.0, 0.0, 0.0, 0.0, 1.71846881210189E9, 0.0, 2024-06-15 11:26:52.101
242.0, 47899.229574111654, 68067.1638926463, 11653.59606189681, -187500.02235174447, 72937.58665771325, -187500.02235174447, -173497.3920580616, -187500.02235174447, -0.20800000000000002, 0.968, 0.036000000000000004, 192.0, 0.0, 0.0, 0.0, 0.0, 0.0, 0.0, 0.0, 0.0, 0.0, 1.7184688121805344E9, 0.0, 2024-06-15 11:26:52.180
243.0, 48283.5454682762, 68535.43293898499, 9905.86845944744, -187500.02235174447, 72748.98263799938, -187500.02235174447, -174027.28486386358, -187500.02235174447, -0.20800000000000002, 0.968, 0.036000000000000004, 192.0, 0.0, 0.0, 0.0, 0.0, 0.0, 0.0, 0.0, 0.0, 0.0, 1.7184688121805527E9, 0.0, 2024-06-15 11:26:52.180
244.0, 48353.28291097676, 68568.42411380103, 8237.489549814409, -187500.02235174447, 73047.4901852, -187500.02235174447, -174452.19152595897, -187500.02235174447, -0.198, 0.966, 0.028, 192.0, 249.0, 208.0, 30.0, 48.0, 0.0, 224.0, 0.0, 0.0, 0.0, 1.7184688121805637E9, 0.0, 2024-06-15 11:26:52.180
245.0, 48048.80744800657, 68186.20928361527, 9469.92003559113, -187500.02235174447, 73230.14864088877, -187500.02235174447, -174152.78990898014, -187500.02235174447, -0.198, 0.966, 0.028, 192.0, 0.0, 0.0, 0.0, 0.0, 0.0, 0.0, 0.0, 0.0, 0.0, 1.7184688121805744E9, 0.0, 2024-06-15 11:26:52.180
246.0, 47889.39480655132, 68069.8684537254, 11621.096625458793, -187500.02235174447, 73037.07427228383, -187500.02235174447, -173518.73797401643, -187500.02235174447, -0.198, 0.966, 0.028, 192.0, 0.0, 0.0, 0.0, 0.0, 0.0, 0.0, 0.0, 0.0, 0.0, 1.718468812180606E9, 0.0, 2024-06-15 11:26:52.180
247.0, 48262.73599418831, 68518.4232614545, 10366.649671393594, -187500.02235174447, 72755.68816133597, -187500.02235174447, -173942.83997331143, -187500.02235174447, -0.198, 0.966, 0.028, 192.0, 0.0, 0.0, 0.0, 0.0, 0.0, 0.0, 0.0, 0.0, 0.0, 1.718468812180618E9, 0.0, 2024-06-15 11:26:52.180
248.0, 48392.84549866265, 68611.22770443294, 8343.637984232662, -187500.02235174447, 73008.46403938104, -187500.02235174447, -174446.93886601197, -187500.02235174447, -0.198, 0.966, 0.028, 192.0, 0.0, 0.0, 0.0, 0.0, 0.0, 0.0, 0.0, 0.0, 0.0, 1.718468812180628E9, 0.0, 2024-06-15 11:26:52.180
249.0, 48121.04828608612, 68257.15372051642, 9097.13764156552, -187500.02235174447, 73206.43344002169, -187500.02235174447, -174263.52045101172, -187500.02235174447, -0.198, 0.966, 0.028, 192.0, 0.0, 0.0, 0.0, 0.0, 0.0, 0.0, 0.0, 0.0, 0.0, 1.718468812180638E9, 0.0, 2024-06-15 11:26:52.180
250.0, 47846.12182928585, 67986.83172307393, 11473.530408564855, -187500.02235174447, 73081.73305770554, -187500.02235174447, -173545.00127375143, -187500.02235174447, -0.198, 0.966, 0.028, 192.0, 0.0, 0.0, 0.0, 0.0, 0.0, 0.0, 0.0, 0.0, 0.0, 1.718468812180663E9, 0.0, 2024-06-15 11:26:52.180
251.0, 48170.892676221454, 68395.01928031674, 10865.384145424861, -187500.02235174447, 72721.15471615252, -187500.02235174447, -173776.49829107503, -187500.02235174447, -0.198, 0.966, 0.028, 192.0, 0.0, 0.0, 0.0, 0.0, 0.0, 0.0, 0.0, 0.0, 0.0, 1.7184688121806738E9, 0.0, 2024-06-15 11:26:52.180
252.0, 48410.413969804526, 68635.76991984487, 8547.821169831894, -187500.02235174447, 72948.60606772972, -187500.02235174447, -174396.8709584321, -187500.02235174447, -0.198, 0.966, 0.028, 192.0, 0.0, 0.0, 0.0, 0.0, 0.0, 0.0, 0.0, 0.0, 0.0, 1.7184688121806831E9, 0.0, 2024-06-15 11:26:52.180
253.0, 48201.49221438077, 68342.26916340222, 8758.084029922966, -187500.02235174447, 73191.59188170337, -187500.02235174447, -174369.08774007414, -187500.02235174447, -0.198, 0.966, 0.028, 192.0, 0.0, 0.0, 0.0, 0.0, 0.0, 0.0, 0.0, 0.0, 0.0, 1.7184688121806924E9, 0.0, 2024-06-15 11:26:52.180
254.0, 47862.77387890505, 67991.90556906529, 11157.521445455724, -187500.02235174447, 73156.27612546398, -187500.02235174447, -173658.65989430665, -187500.02235174447, -0.188, 0.97, 0.038, 192.0, 250.0, 32.0, 30.0, 80.0, 1.0, 48.0, 0.0, 0.0, 0.0, 1.718468812180702E9, 0.0, 2024-06-15 11:26:52.180
255.0, 48099.63531489793, 68309.00976765272, 11277.639720158544, -187500.02235174447, 72755.73286482488, -187500.02235174447, -173653.1837169151, -187500.02235174447, -0.188, 0.97, 0.038, 192.0, 0.0, 0.0, 0.0, 0.0, 0.0, 0.0, 0.0, 0.0, 0.0, 1.7184688121807115E9, 0.0, 2024-06-15 11:26:52.180
0.0, 48377.422794988495, 68620.05664349278, 8876.57062728055, -187500.02235174447, 72878.86862502916, -187500.02235174447, -174298.21035840636, -187500.02235174447, -0.188, 0.97, 0.038, 192.0, 0.0, 0.0, 0.0, 0.0, 0.0, 0.0, 0.0, 0.0, 0.0, 1.7184688121807203E9, 0.0, 2024-06-15 11:26:52.180
1.0, 48232.09175254009, 68397.20975127337, 8558.304137981431, -187500.02235174447, 73142.30628517941, -187500.02235174447, -174388.22083332788, -187500.02235174447, -0.188, 0.97, 0.038, 192.0, 0.0, 0.0, 0.0, 0.0, 0.0, 0.0, 0.0, 0.0, 0.0, 1.7184688121965592E9, 0.0, 2024-06-15 11:26:52.196
2.0, 47884.56682974897, 68010.56927568547, 10810.287095342528, -187500.02235174447, 73205.00292837655, -187500.02235174447, -173750.14558436224, -187500.02235174447, -0.188, 0.97, 0.038, 192.0, 0.0, 0.0, 0.0, 0.0, 0.0, 0.0, 0.0, 0.0, 0.0, 1.718468812218598E9, 0.0, 2024-06-15 11:26:52.218
3.0, 48005.80269167456, 68198.1451151544, 11620.91781150315, -187500.02235174447, 72807.43244975, -187500.02235174447, -173521.59899730672, -187500.02235174447, -0.188, 0.97, 0.038, 192.0, 0.0, 0.0, 0.0, 0.0, 0.0, 0.0, 0.0, 0.0, 0.0, 1.7184688122186363E9, 0.0, 2024-06-15 11:26:52.218
4.0, 48364.23526575986, 68615.92157076855, 9270.877751216622, -187500.02235174447, 72828.62190349364, -187500.02235174447, -174188.08331347507, -187500.02235174447, -0.188, 0.97, 0.038, 192.0, 0.0, 0.0, 0.0, 0.0, 0.0, 0.0, 0.0, 0.0, 0.0, 1.718468812218647E9, 0.0, 2024-06-15 11:26:52.218
5.0, 48294.72134050386, 68480.15707494701, 8412.928392044114, -187500.02235174447, 73110.72327026406, -187500.02235174447, -174408.29269984874, -187500.02235174447, -0.188, 0.97, 0.038, 192.0, 0.0, 0.0, 0.0, 0.0, 0.0, 0.0, 0.0, 0.0, 0.0, 1.7184688122186565E9, 0.0, 2024-06-15 11:26:52.218
6.0, 47956.762964339614, 68092.57782609199, 10391.527162972352, -187500.02235174447, 73230.50626880006, -187500.02235174447, -173881.64089699282, -187500.02235174447, -0.188, 0.97, 0.038, 192.0, 0.0, 0.0, 0.0, 0.0, 0.0, 0.0, 0.0, 0.0, 0.0, 1.7184688122556832E9, 0.0, 2024-06-15 11:26:52.255
7.0, 47984.12149955291, 68177.64856548888, 11786.387775705789, -187500.02235174447, 72895.36421243718, -187500.02235174447, -173497.459113295, -187500.02235174447, -0.188, 0.97, 0.038, 192.0, 0.0, 0.0, 0.0, 0.0, 0.0, 0.0, 0.0, 0.0, 0.0, 1.718468812255718E9, 0.0, 2024-06-15 11:26:52.255
8.0, 48332.249919444315, 68597.21316065946, 9695.449137145179, -187500.02235174447, 72773.6813156225, -187500.02235174447, -174106.16417004637, -187500.02235174447, -0.184, 0.97, 0.04, 192.0, 250.0, 64.0, 30.0, 80.0, 1.0, 64.0, 0.0, 0.0, 0.0, 1.7184688122557285E9, 0.0, 2024-06-15 11:26:52.255
9.0, 48350.89127432004, 68558.00820088485, 8324.147263067634, -187500.02235174447, 73079.00614488199, -187500.02235174447, -174456.50541263886, -187500.02235174447, -0.184, 0.97, 0.04, 192.0, 0.0, 0.0, 0.0, 0.0, 0.0, 0.0, 0.0, 0.0, 0.0, 1.7184688122557385E9, 0.0, 2024-06-15 11:26:52.255
10.0, 48027.6850494963, 68154.15688206637, 9926.72263702424, -187500.02235174447, 73257.41776912425, -187500.02235174447, -174052.341169398, -187500.02235174447, -0.184, 0.97, 0.04, 192.0, 0.0, 0.0, 0.0, 0.0, 0.0, 0.0, 0.0, 0.0, 0.0, 1.718468812255748E9, 0.0, 2024-06-15 11:26:52.255
11.0, 47898.08963514443, 68063.5205583001, 11872.82197151446, -187500.02235174447, 72969.48259705098, -187500.02235174447, -173463.26094427836, -187500.02235174447, -0.184, 0.97, 0.04, 192.0, 0.0, 0.0, 0.0, 0.0, 0.0, 0.0, 0.0, 0.0, 0.0, 1.7184688122786553E9, 0.0, 2024-06-15 11:26:52.278
12.0, 48270.581456492124, 68524.14530803506, 10212.959076518902, -187500.02235174447, 72730.7659662683, -187500.02235174447, -173965.03525555556, -187500.02235174447, -0.184, 0.97, 0.04, 192.0, 0.0, 0.0, 0.0, 0.0, 0.0, 0.0, 0.0, 0.0, 0.0, 1.7184688122786815E9, 0.0, 2024-06-15 11:26:52.278
13.0, 48365.464611704905, 68595.2909106363, 8405.239391951489, -187500.02235174447, 73023.6855773551, -187500.02235174447, -174419.49092382085, -187500.02235174447, -0.184, 0.97, 0.04, 192.0, 0.0, 0.0, 0.0, 0.0, 0.0, 0.0, 0.0, 0.0, 0.0, 1.7184688122786932E9, 0.0, 2024-06-15 11:26:52.278
14.0, 48067.024119737645, 68210.17035367136, 9553.627318576255, -187500.02235174447, 73221.5879227624, -187500.02235174447, -174143.98332166474, -187500.02235174447, -0.184, 0.97, 0.04, 192.0, 0.0, 0.0, 0.0, 0.0, 0.0, 0.0, 0.0, 0.0, 0.0, 1.7184688122948136E9, 0.0, 2024-06-15 11:26:52.294
15.0, 47829.35802094436, 67986.83172307393, 11872.01730871407, -187500.02235174447, 73014.05197549486, -187500.02235174447, -173420.9714437689, -187500.02235174447, -0.184, 0.97, 0.04, 192.0, 0.0, 0.0, 0.0, 0.0, 0.0, 0.0, 0.0, 0.0, 0.0, 1.718468812325782E9, 0.0, 2024-06-15 11:26:52.325
16.0, 48228.51547342724, 68472.15515043201, 10754.966527815644, -187500.02235174447, 72715.65618701652, -187500.02235174447, -173800.79463729795, -187500.02235174447, -0.184, 0.97, 0.04, 192.0, 0.0, 0.0, 0.0, 0.0, 0.0, 0.0, 0.0, 0.0, 0.0, 1.7184688123258E9, 0.0, 2024-06-15 11:26:52.325
17.0, 48405.67539998, 68640.24026873593, 8570.977577087591, -187500.02235174447, 72990.60499556124, -187500.02235174447, -174373.20046105393, -187500.02235174447, -0.184, 0.97, 0.04, 192.0, 0.0, 0.0, 0.0, 0.0, 0.0, 0.0, 0.0, 0.0, 0.0, 1.718468812366856E9, 0.0, 2024-06-15 11:26:52.366
18.0, 48155.313510336106, 68306.9757589073, 9203.353131217138, -187500.02235174447, 73218.57043726092, -187500.02235174447, -174240.90048562296, -187500.02235174447, -0.184, 0.97, 0.04, 192.0, 0.0, 0.0, 0.0, 0.0, 0.0, 0.0, 0.0, 0.0, 0.0, 1.7184688123668904E9, 0.0, 2024-06-15 11:26:52.366
19.0, 47872.92157088775, 68019.50997346759, 11628.584459851321, -187500.02235174447, 73133.79027054194, -187500.02235174447, -173532.84192476774, -187500.02235174447, -0.178, 0.974, 0.038, 192.0, 250.0, 112.0, 30.0, 112.0, 1.0, 48.0, 0.0, 0.0, 0.0, 1.7184688123669016E9, 0.0, 2024-06-15 11:26:52.366
20.0, 48150.15025736693, 68378.81426558665, 11208.796347236199, -187500.02235174447, 72738.90200125004, -187500.02235174447, -173693.17098774566, -187500.02235174447, -0.178, 0.974, 0.038, 192.0, 0.0, 0.0, 0.0, 0.0, 0.0, 0.0, 0.0, 0.0, 0.0, 1.7184688123669112E9, 0.0, 2024-06-15 11:26:52.366
21.0, 48379.81443164521, 68619.56490511476, 8836.292783772085, -187500.02235174447, 72915.39137546913, -187500.02235174447, -174306.07817245464, -187500.02235174447, -0.178, 0.974, 0.038, 192.0, 0.0, 0.0, 0.0, 0.0, 0.0, 0.0, 0.0, 0.0, 0.0, 1.7184688123669205E9, 0.0, 2024-06-15 11:26:52.366
22.0, 48203.9285545264, 68351.25456467326, 8927.890232549935, -187500.02235174447, 73178.62786991929, -187500.02235174447, -174309.49798935628, -187500.02235174447, -0.178, 0.974, 0.038, 192.0, 0.0, 0.0, 0.0, 0.0, 0.0, 0.0, 0.0, 0.0, 0.0, 1.7184688123669302E9, 0.0, 2024-06-15 11:26:52.366
