%OpenBCI Raw EXG Data
%Number of channels = 8
%Sample Rate = 250 Hz
%Board = OpenBCI_GUI$BoardCytonSerial
Sample Index, EXG Channel 0, EXG Channel 1, EXG Channel 2, EXG Channel 3, EXG Channel 4, EXG Channel 5, EXG Channel 6, EXG Channel 7, Accel Channel 0, Accel Channel 1, Accel Channel 2, Other, Other, Other, Other, Other, Other, Other, Analog Channel 0, Analog Channel 1, Analog Channel 2, Timestamp, Other, Timestamp (Formatted)
84.0, -27887.42219059732, -105308.81348953409, 17417.216887142287, -187500.02235174447, 59763.759048433196, -187500.02235174447, -175932.65931995623, -187500.02235174447, 0.0, 0.0, 0.0, 192.0, 0.0, 0.0, 0.0, 0.0, 0.0, 0.0, 0.0, 0.0, 0.0, 1.7184658079214008E9, 0.0, 2024-06-15 10:36:47.921
85.0, -32103.16236056833, -110350.2941549175, 12604.729843703491, -187500.02235174447, 56801.63881798254, -187500.02235174447, -178166.6938265197, -187500.02235174447, 0.0, 0.0, 0.0, 192.0, 0.0, 0.0, 0.0, 0.0, 0.0, 0.0, 0.0, 0.0, 0.0, 1.7184658079214342E9, 0.0, 2024-06-15 10:36:47.921
86.0, -30038.62113220944, -108124.39568333575, 14442.557328052204, -187500.02235174447, 59184.84886704074, -187500.02235174447, -177209.45801847673, -187500.02235174447, 0.0, 0.0, 0.0, 192.0, 0.0, 0.0, 0.0, 0.0, 0.0, 0.0, 0.0, 0.0, 0.0, 1.7184658079214528E9, 0.0, 2024-06-15 10:36:47.921
87.0, -24397.19729390112, -101325.33029619817, 20502.67404349733, -187500.02235174447, 62256.31383136676, -187500.02235174447, -174448.90581952405, -187500.02235174447, 0.0, 0.0, 0.0, 192.0, 0.0, 0.0, 0.0, 0.0, 0.0, 0.0, 0.0, 0.0, 0.0, 1.7184658079214685E9, 0.0, 2024-06-15 10:36:47.921
88.0, -24359.62401147175, -100883.50336355012, 20764.167101879968, -187500.02235174447, 60499.198496246165, -187500.02235174447, -174454.33729342668, -187500.02235174447, 0.0, 0.0, 0.0, 192.0, 0.0, 0.0, 0.0, 0.0, 0.0, 0.0, 0.0, 0.0, 0.0, 1.7184658079214847E9, 0.0, 2024-06-15 10:36:47.921
89.0, -28584.908376325177, -105827.19514694157, 15993.9248554617, -187500.02235174447, 57045.49634998994, -187500.02235174447, -176708.80129442233, -187500.02235174447, 0.0, 0.0, 0.0, 192.0, 0.0, 0.0, 0.0, 0.0, 0.0, 0.0, 0.0, 0.0, 0.0, 1.7184658079215004E9, 0.0, 2024-06-15 10:36:47.921
90.0, -27744.259267361078, -105034.4458263452, 16465.725477424323, -187500.02235174447, 58466.06146884698, -187500.02235174447, -176436.15471555648, -187500.02235174447, 0.0, 0.0, 0.0, 192.0, 0.0, 0.0, 0.0, 0.0, 0.0, 0.0, 0.0, 0.0, 0.0, 1.7184658079215164E9, 0.0, 2024-06-15 10:36:47.921
91.0, -21920.266380341815, -97992.0817008116, 22741.290657674155, -187500.02235174447, 62035.47859614833, -187500.02235174447, -173568.49295717396, -187500.02235174447, 0.0, 0.0, 0.0, 192.0, 0.0, 0.0, 0.0, 0.0, 0.0, 0.0, 0.0, 0.0, 0.0, 1.7184658079215324E9, 0.0, 2024-06-15 10:36:47.921
92.0, -20371.625765755864, -95749.33001391054, 24646.53100330007, -187500.02235174447, 61156.7868181213, -187500.02235174447, -172808.66775616026, -187500.02235174447, 0.0, 0.0, 0.0, 192.0, 0.0, 0.0, 0.0, 0.0, 0.0, 0.0, 0.0, 0.0, 0.0, 1.7184658079215484E9, 0.0, 2024-06-15 10:36:47.921
93.0, -24258.88469921168, -100210.87231765657, 20332.77843389254, -187500.02235174447, 57467.31847135049, -187500.02235174447, -174893.61612720683, -187500.02235174447, 0.0, 0.0, 0.0, 192.0, 0.0, 0.0, 0.0, 0.0, 0.0, 0.0, 0.0, 0.0, 0.0, 1.718465807921564E9, 0.0, 2024-06-15 10:36:47.921
94.0, -24819.533505384148, -101042.98306023874, 19313.62829370836, -187500.02235174447, 57796.20203926588, -187500.02235174447, -175317.71812650183, -187500.02235174447, -0.07200000000000001, 0.9560000000000001, -0.194, 192.0, 253.0, 192.0, 29.0, 224.0, 249.0, 240.0, 0.0, 0.0, 0.0, 1.7184658079215803E9, 0.0, 2024-06-15 10:36:47.921
95.0, -19562.96200310731, -94635.85551212497, 25047.878926739566, -187500.02235174447, 61524.09303475536, -187500.02235174447, -172634.48061162003, -187500.02235174447, -0.07200000000000001, 0.9560000000000001, -0.194, 192.0, 0.0, 0.0, 0.0, 0.0, 0.0, 0.0, 0.0, 0.0, 0.0, 1.718465807921596E9, 0.0, 2024-06-15 10:36:47.921
96.0, -17183.84232328443, -91372.65728386132, 27930.315188207056, -187500.02235174447, 61476.01443243199, -187500.02235174447, -171419.6633004741, -187500.02235174447, -0.07200000000000001, 0.9560000000000001, -0.194, 192.0, 0.0, 0.0, 0.0, 0.0, 0.0, 0.0, 0.0, 0.0, 0.0, 1.718465807921612E9, 0.0, 2024-06-15 10:36:47.921
97.0, -20703.213894750344, -95331.46415131858, 24119.633331255118, -187500.02235174447, 57874.16492392599, -187500.02235174447, -173252.148717898, -187500.02235174447, -0.07200000000000001, 0.9560000000000001, -0.194, 192.0, 0.0, 0.0, 0.0, 0.0, 0.0, 0.0, 0.0, 0.0, 0.0, 1.7184658079216266E9, 0.0, 2024-06-15 10:36:47.921
98.0, -22459.479863581644, -97609.93392585921, 21775.11415184905, -187500.02235174447, 57221.09165443083, -187500.02235174447, -174317.87989352702, -187500.02235174447, -0.07200000000000001, 0.9560000000000001, -0.194, 192.0, 0.0, 0.0, 0.0, 0.0, 0.0, 0.0, 0.0, 0.0, 0.0, 1.718465807921642E9, 0.0, 2024-06-15 10:36:47.921
99.0, -17890.135096327675, -92086.50494653046, 26769.365581198406, -187500.02235174447, 60937.5832602481, -187500.02235174447, -171948.8855539424, -187500.02235174447, -0.07200000000000001, 0.9560000000000001, -0.194, 192.0, 0.0, 0.0, 0.0, 0.0, 0.0, 0.0, 0.0, 0.0, 0.0, 1.718465807921658E9, 0.0, 2024-06-15 10:36:47.921
100.0, -14794.932579390119, -88015.78289458549, 30525.57623691276, -187070.44417505793, 61730.444339566755, -187500.02235174447, -170321.43268840705, -187500.02235174447, -0.07200000000000001, 0.9560000000000001, -0.194, 192.0, 0.0, 0.0, 0.0, 0.0, 0.0, 0.0, 0.0, 0.0, 0.0, 1.718465807921674E9, 0.0, 2024-06-15 10:36:47.921
101.0, -17959.425504139126, -91537.52375096366, 27305.226302769937, -187500.02235174447, 58331.74983641504, -187500.02235174447, -171865.9605820132, -187500.02235174447, -0.07200000000000001, 0.9560000000000001, -0.194, 192.0, 0.0, 0.0, 0.0, 0.0, 0.0, 0.0, 0.0, 0.0, 0.0, 1.7184658079216902E9, 0.0, 2024-06-15 10:36:47.921
102.0, -21099.443268709572, -95516.6930576197, 23588.645289974844, -187500.02235174447, 56665.82961867209, -187500.02235174447, -173546.05180574083, -187500.02235174447, -0.07200000000000001, 0.9560000000000001, -0.194, 192.0, 0.0, 0.0, 0.0, 0.0, 0.0, 0.0, 0.0, 0.0, 0.0, 1.7184658079217062E9, 0.0, 2024-06-15 10:36:47.921
103.0, -17960.654850084167, -91808.8739286511, 27126.121774449563, -187500.02235174447, 60043.84875820265, -187500.02235174447, -171801.78872368202, -187500.02235174447, -0.07200000000000001, 0.9560000000000001, -0.194, 192.0, 0.0, 0.0, 0.0, 0.0, 0.0, 0.0, 0.0, 0.0, 0.0, 1.7184658079217217E9, 0.0, 2024-06-15 10:36:47.921
104.0, -14400.759565920778, -87282.24334505122, 31503.15213241007, -186678.64044650085, 61778.90292154586, -187500.02235174447, -169819.41250794084, -187500.02235174447, -0.066, 0.968, -0.192, 192.0, 253.0, 240.0, 30.0, 64.0, 250.0, 0.0, 0.0, 0.0, 0.0, 1.7184658079217377E9, 0.0, 2024-06-15 10:36:47.921
105.0, -16868.325098553312, -90003.45647376258, 29184.292755638693, -187500.02235174447, 58908.87187825106, -187500.02235174447, -170945.5380970881, -187500.02235174447, -0.066, 0.968, -0.192, 192.0, 0.0, 0.0, 0.0, 0.0, 0.0, 0.0, 0.0, 0.0, 0.0, 1.7184658079217536E9, 0.0, 2024-06-15 10:36:47.921
106.0, -20919.221153166432, -95098.15664269408, 24549.233859686123, -187500.02235174447, 56428.94583093475, -187500.02235174447, -173064.93050634034, -187500.02235174447, -0.066, 0.968, -0.192, 192.0, 0.0, 0.0, 0.0, 0.0, 0.0, 0.0, 0.0, 0.0, 0.0, 1.7184658079217756E9, 0.0, 2024-06-15 10:36:47.921
107.0, -18988.18689443909, -92938.50874167786, 26732.552258080515, -187500.02235174447, 59281.095478665295, -187500.02235174447, -171920.588245462, -187500.02235174447, -0.066, 0.968, -0.192, 192.0, 0.0, 0.0, 0.0, 0.0, 0.0, 0.0, 0.0, 0.0, 0.0, 1.7184658079217916E9, 0.0, 2024-06-15 10:36:47.921
108.0, -15012.862087829362, -87978.88016448978, 31599.465799267986, -186711.9221939948, 61818.39845399839, -187500.02235174447, -169689.23594823314, -187429.92728113264, -0.066, 0.968, -0.192, 192.0, 0.0, 0.0, 0.0, 0.0, 0.0, 0.0, 0.0, 0.0, 0.0, 1.7184658079218068E9, 0.0, 2024-06-15 10:36:47.921
109.0, -16552.6067081221, -89643.34751884312, 30359.323961654183, -187424.54051071889, 59574.21625545219, -187500.02235174447, -170338.5988281487, -187500.02235174447, -0.066, 0.968, -0.192, 192.0, 0.0, 0.0, 0.0, 0.0, 0.0, 0.0, 0.0, 0.0, 0.0, 1.718465807921824E9, 0.0, 2024-06-15 10:36:47.921
110.0, -21049.822396018793, -95368.9033232812, 25225.08355678124, -187500.02235174447, 56441.41810434081, -187500.02235174447, -172711.01298463502, -187500.02235174447, -0.066, 0.968, -0.192, 192.0, 0.0, 0.0, 0.0, 0.0, 0.0, 0.0, 0.0, 0.0, 0.0, 1.7184658079218397E9, 0.0, 2024-06-15 10:36:47.921
111.0, -20373.70447799021, -94912.57010848167, 25845.791500305117, -187500.02235174447, 58410.53973562, -187500.02235174447, -172270.661267121, -187500.02235174447, -0.066, 0.968, -0.192, 192.0, 0.0, 0.0, 0.0, 0.0, 0.0, 0.0, 0.0, 0.0, 0.0, 1.7184658079218552E9, 0.0, 2024-06-15 10:36:47.921
112.0, -16271.086486707509, -89890.04372239635, 30748.914867510186, -187225.85585425567, 61441.03395235944, -187500.02235174447, -169978.93690811837, -187500.02235174447, -0.066, 0.968, -0.192, 192.0, 0.0, 0.0, 0.0, 0.0, 0.0, 0.0, 0.0, 0.0, 0.0, 1.7184658079218707E9, 0.0, 2024-06-15 10:36:47.921
113.0, -16806.880153045673, -90378.65285618936, 30548.55383021281, -187400.735902874, 59902.36221580055, -187500.02235174447, -170131.44286053692, -187500.02235174447, -0.066, 0.968, -0.192, 192.0, 0.0, 0.0, 0.0, 0.0, 0.0, 0.0, 0.0, 0.0, 0.0, 1.7184658079219067E9, 0.0, 2024-06-15 10:36:47.921
114.0, -21424.124708667365, -96289.19169773957, 25228.212801004986, -187500.02235174447, 56406.48232775716, -187500.02235174447, -172563.64793344116, -187500.02235174447, -0.042, 0.968, -0.202, 192.0, 254.0, 176.0, 30.0, 64.0, 249.0, 176.0, 0.0, 0.0, 0.0, 1.7184658079219239E9, 0.0, 2024-06-15 10:36:47.921
115.0, -21961.43829362849, -97455.19279899512, 24285.907958258147, -187500.02235174447, 57493.49236410765, -187500.02235174447, -172843.62588448834, -187500.02235174447, -0.042, 0.968, -0.202, 192.0, 0.0, 0.0, 0.0, 0.0, 0.0, 0.0, 0.0, 0.0, 0.0, 1.718465807921961E9, 0.0, 2024-06-15 10:36:47.921
116.0, -17674.64192803406, -92348.15446712429, 29220.949616545397, -187500.02235174447, 61062.64127047554, -187500.02235174447, -170461.2875534639, -187500.02235174447, -0.042, 0.968, -0.202, 192.0, 0.0, 0.0, 0.0, 0.0, 0.0, 0.0, 0.0, 0.0, 0.0, 1.7184658079219973E9, 0.0, 2024-06-15 10:36:47.921
117.0, -16836.943249338063, -91256.62937839382, 30419.74072691688, -187436.3422317913, 60382.097707044806, -187500.02235174447, -169960.02733230917, -187500.02235174447, -0.042, 0.968, -0.202, 192.0, 0.0, 0.0, 0.0, 0.0, 0.0, 0.0, 0.0, 0.0, 0.0, 1.71846580792214E9, 0.0, 2024-06-15 10:36:47.922
118.0, -21038.847689491235, -96667.56202787902, 25505.866170628808, -187500.02235174447, 56693.45637481885, -187500.02235174447, -172251.08113897816, -187500.02235174447, -0.042, 0.968, -0.202, 192.0, 0.0, 0.0, 0.0, 0.0, 0.0, 0.0, 0.0, 0.0, 0.0, 1.718465807922156E9, 0.0, 2024-06-15 10:36:47.922
119.0, -22548.730379191682, -99110.36182765507, 23275.452646667083, -187500.02235174447, 56740.81972131965, -187500.02235174447, -173146.73789104677, -187500.02235174447, -0.042, 0.968, -0.202, 192.0, 0.0, 0.0, 0.0, 0.0, 0.0, 0.0, 0.0, 0.0, 0.0, 1.7184658079221873E9, 0.0, 2024-06-15 10:36:47.922
120.0, -18476.778981301664, -94312.53752857895, 27829.17354454679, -187500.02235174447, 60486.10037399535, -187500.02235174447, -170915.78792521812, -187500.02235174447, -0.042, 0.968, -0.202, 192.0, 0.0, 0.0, 0.0, 0.0, 0.0, 0.0, 0.0, 0.0, 0.0, 1.7184658079222057E9, 0.0, 2024-06-15 10:36:47.922
121.0, -16517.246248393803, -91838.75821098784, 30232.88014327051, -187500.02235174447, 60725.845185022976, -187500.02235174447, -169863.35603753998, -187419.46666472754, -0.042, 0.968, -0.202, 192.0, 0.0, 0.0, 0.0, 0.0, 0.0, 0.0, 0.0, 0.0, 0.0, 1.718465807922226E9, 0.0, 2024-06-15 10:36:47.922
122.0, -20026.53718311038, -96348.96026241306, 26132.564381666707, -187500.02235174447, 57206.8535932128, -187500.02235174447, -171788.93647062022, -187500.02235174447, -0.042, 0.968, -0.202, 192.0, 0.0, 0.0, 0.0, 0.0, 0.0, 0.0, 0.0, 0.0, 0.0, 1.7184658079222424E9, 0.0, 2024-06-15 10:36:47.922
123.0, -22387.01550805754, -99880.31236890702, 22846.299153125186, -187500.02235174447, 56251.160055537235, -187500.02235174447, -173214.26251104625, -187500.02235174447, -0.042, 0.968, -0.202, 192.0, 0.0, 0.0, 0.0, 0.0, 0.0, 0.0, 0.0, 0.0, 0.0, 1.7184658079222584E9, 0.0, 2024-06-15 10:36:47.922
124.0, -18793.302034533266, -95757.84602854801, 26729.043034201033, -187500.02235174447, 59853.2777849767, -187500.02235174447, -171282.7812174298, -187500.02235174447, -0.05, 0.97, -0.212, 192.0, 254.0, 112.0, 30.0, 80.0, 249.0, 96.0, 0.0, 0.0, 0.0, 1.7184658079222753E9, 0.0, 2024-06-15 10:36:47.922
125.0, -15812.674559673616, -92062.63328345219, 30226.97928273431, -187500.02235174447, 60971.66967054244, -187500.02235174447, -169733.53710574354, -187280.81879387127, -0.05, 0.97, -0.212, 192.0, 0.0, 0.0, 0.0, 0.0, 0.0, 0.0, 0.0, 0.0, 0.0, 1.7184658079222915E9, 0.0, 2024-06-15 10:36:47.922
126.0, -18300.222551849194, -95297.53420323542, 27301.11358179016, -187500.02235174447, 57829.3496762931, -187500.02235174447, -171113.57851190312, -187500.02235174447, -0.05, 0.97, -0.212, 192.0, 0.0, 0.0, 0.0, 0.0, 0.0, 0.0, 0.0, 0.0, 0.0, 1.7184658079223077E9, 0.0, 2024-06-15 10:36:47.922
127.0, -21053.935116998568, -99328.20192911649, 23479.009983421565, -187500.02235174447, 55998.5182879589, -187500.02235174447, -172832.71823319414, -187500.02235174447, -0.05, 0.97, -0.212, 192.0, 0.0, 0.0, 0.0, 0.0, 0.0, 0.0, 0.0, 0.0, 0.0, 1.718465807922328E9, 0.0, 2024-06-15 10:36:47.922
128.0, -17653.564233012705, -95508.82524357144, 26947.86661241849, -187500.02235174447, 59393.39064280876, -187500.02235174447, -171124.41910796394, -187500.02235174447, -0.05, 0.97, -0.212, 192.0, 0.0, 0.0, 0.0, 0.0, 0.0, 0.0, 0.0, 0.0, 0.0, 1.718465807922344E9, 0.0, 2024-06-15 10:36:47.922
129.0, -13154.627460792955, -89921.80555126735, 32049.29465643104, -186986.893354284, 61526.305857456435, -187500.02235174447, -168856.07467366155, -186492.2268977436, -0.05, 0.97, -0.212, 192.0, 0.0, 0.0, 0.0, 0.0, 0.0, 0.0, 0.0, 0.0, 0.0, 1.7184658079223602E9, 0.0, 2024-06-15 10:36:47.922
130.0, -14120.535745684594, -91145.69767066214, 30865.09923518887, -187500.02235174447, 58911.46468060788, -187500.02235174447, -169537.95934175962, -187071.4053000695, -0.05, 0.97, -0.212, 192.0, 0.0, 0.0, 0.0, 0.0, 0.0, 0.0, 0.0, 0.0, 0.0, 1.7184658079223762E9, 0.0, 2024-06-15 10:36:47.922
131.0, -17049.70950480813, -95273.37196747924, 26857.699675285778, -187500.02235174447, 56228.428331426185, -187500.02235174447, -171426.68174823307, -187500.02235174447, -0.05, 0.97, -0.212, 192.0, 0.0, 0.0, 0.0, 0.0, 0.0, 0.0, 0.0, 0.0, 0.0, 1.7184658079224129E9, 0.0, 2024-06-15 10:36:47.922
132.0, -14465.266700418795, -92447.97735786169, 29309.99896645534, -187500.02235174447, 58843.49302571929, -187500.02235174447, -170180.4155326385, -187500.02235174447, -0.05, 0.97, -0.212, 192.0, 0.0, 0.0, 0.0, 0.0, 0.0, 0.0, 0.0, 0.0, 0.0, 1.718465807922429E9, 0.0, 2024-06-15 10:36:47.922
133.0, -9499.35728303877, -86226.12341953795, 34944.87374363825, -185917.98823094228, 61527.80342433494, -186977.2821041682, -167625.07469952997, -185401.75234100252, -0.05, 0.97, -0.212, 192.0, 0.0, 0.0, 0.0, 0.0, 0.0, 0.0, 0.0, 0.0, 0.0, 1.7184658079224613E9, 0.0, 2024-06-15 10:36:47.922
134.0, -9558.075315722861, -86220.37902121294, 34885.61926908723, -186153.5979692457, 59457.7860185845, -187207.50507205786, -167808.42605929688, -185571.4020814183, -0.05, 0.97, -0.212, 192.0, 0.0, 0.0, 0.0, 0.0, 0.0, 0.0, 0.0, 0.0, 0.0, 1.7184658079224975E9, 0.0, 2024-06-15 10:36:47.922
135.0, -12643.845396500277, -90511.53397697616, 30734.74386152552, -187500.02235174447, 56245.99680256806, -187500.02235174447, -169800.9723187652, -187241.9491102635, -0.052000000000000005, 0.972, -0.21, 192.0, 254.0, 96.0, 30.0, 96.0, 249.0, 112.0, 0.0, 0.0, 0.0, 1.7184658079225135E9, 0.0, 2024-06-15 10:36:47.922
136.0, -10898.621189429903, -88836.22602656198, 32069.075950273986, -187500.02235174447, 58115.80963323232, -187500.02235174447, -169127.29074088225, -186655.52874273405, -0.052000000000000005, 0.972, -0.21, 192.0, 0.0, 0.0, 0.0, 0.0, 0.0, 0.0, 0.0, 0.0, 0.0, 1.7184658079225292E9, 0.0, 2024-06-15 10:36:47.922
137.0, -5400.8296609913905, -81984.03054285415, 38234.961120481625, -184817.9694793188, 61499.12613619878, -186064.95095073595, -166337.0554252929, -184299.47606318904, -0.052000000000000005, 0.972, -0.21, 192.0, 0.0, 0.0, 0.0, 0.0, 0.0, 0.0, 0.0, 0.0, 0.0, 1.7184658079225454E9, 0.0, 2024-06-15 10:36:47.922
138.0, -4272.804173565409, -80447.88455341871, 39566.678055128825, -184389.26302066603, 60192.53256231935, -185793.69018002631, -165903.56569332667, -183950.2747595638, -0.052000000000000005, 0.972, -0.21, 192.0, 0.0, 0.0, 0.0, 0.0, 0.0, 0.0, 0.0, 0.0, 0.0, 1.7184658079225624E9, 0.0, 2024-06-15 10:36:47.922
139.0, -7680.931112877263, -85055.51785892462, 35197.269642027575, -186722.31575516652, 56438.110046161426, -187500.02235174447, -168009.27883497227, -185732.31228975207, -0.052000000000000005, 0.972, -0.21, 192.0, 0.0, 0.0, 0.0, 0.0, 0.0, 0.0, 0.0, 0.0, 0.0, 1.7184658079225776E9, 0.0, 2024-06-15 10:36:47.922
140.0, -7632.383123920336, -85606.48835974793, 34558.12150932807, -187013.46957844135, 57118.8324235478, -187500.02235174447, -168177.78863642082, -185854.79984936715, -0.052000000000000005, 0.972, -0.21, 192.0, 0.0, 0.0, 0.0, 0.0, 0.0, 0.0, 0.0, 0.0, 0.0, 1.7184658079225924E9, 0.0, 2024-06-15 10:36:47.922
141.0, -2899.7141599314405, -79833.77037450914, 39834.67547114795, -184378.24361064954, 60703.78401324559, -185676.7235012917, -165660.37871365296, -183727.58432955557, -0.052000000000000005, 0.972, -0.21, 192.0, 0.0, 0.0, 0.0, 0.0, 0.0, 0.0, 0.0, 0.0, 0.0, 1.718465807922608E9, 0.0, 2024-06-15 10:36:47.922
142.0, -1329.5264636905747, -77822.49335318725, 41691.993676661696, -183614.596261334, 60222.550955122824, -185147.21067514547, -164911.66232963352, -183115.5712146248, -0.052000000000000005, 0.972, -0.21, 192.0, 0.0, 0.0, 0.0, 0.0, 0.0, 0.0, 0.0, 0.0, 0.0, 1.718465807922624E9, 0.0, 2024-06-15 10:36:47.922
143.0, -4754.260749132723, -82526.84265695127, 37339.52788585757, -185911.86385296154, 56473.403450656355, -186923.70497270883, -167000.58931119315, -184890.36677960955, -0.052000000000000005, 0.972, -0.21, 192.0, 0.0, 0.0, 0.0, 0.0, 0.0, 0.0, 0.0, 0.0, 0.0, 1.7184658079226391E9, 0.0, 2024-06-15 10:36:47.922
144.0, -5944.133513466539, -84823.66321368971, 35122.21248414666, -187019.86217735556, 56187.99402570654, -187500.02235174447, -167934.8475259361, -185665.25705638612, -0.052000000000000005, 0.972, -0.21, 192.0, 0.0, 0.0, 0.0, 0.0, 0.0, 0.0, 0.0, 0.0, 0.0, 1.7184658079226544E9, 0.0, 2024-06-15 10:36:47.922
145.0, -1643.9484529433792, -79756.96978056071, 39764.222772624824, -184681.98146605273, 59993.87025760058, -185886.6287334715, -165697.50496119322, -183777.58518190208, -0.054, 0.968, -0.22, 192.0, 254.0, 80.0, 30.0, 64.0, 249.0, 32.0, 0.0, 0.0, 0.0, 1.7184658079226713E9, 0.0, 2024-06-15 10:36:47.922
146.0, 961.6614534451311, -76481.96983122466, 42795.38754169793, -183312.08775187586, 60588.270197900565, -184877.17925038093, -164381.43424766473, -182678.37109307898, -0.054, 0.968, -0.22, 192.0, 0.0, 0.0, 0.0, 0.0, 0.0, 0.0, 0.0, 0.0, 0.0, 1.7184658079226875E9, 0.0, 2024-06-15 10:36:47.922
147.0, -1815.8780712936011, -80256.01717901435, 39333.57171220442, -185135.9006924511, 57142.92760407062, -186293.05050290233, -166037.51969784734, -184078.1490895926, -0.054, 0.968, -0.22, 192.0, 0.0, 0.0, 0.0, 0.0, 0.0, 0.0, 0.0, 0.0, 0.0, 1.718465807922704E9, 0.0, 2024-06-15 10:36:47.922
148.0, -3803.9763336153433, -83503.63624139264, 36200.01360178156, -186754.01052880415, 55934.3017261388, -187464.37131933824, -167453.6144678133, -185261.74101373449, -0.054, 0.968, -0.22, 192.0, 0.0, 0.0, 0.0, 0.0, 0.0, 0.0, 0.0, 0.0, 0.0, 1.7184658079227257E9, 0.0, 2024-06-15 10:36:47.922
149.0, 197.61177272936973, -78840.12357474848, 40396.33010582091, -184628.7172590157, 59673.569759556034, -185797.48997658372, -165407.0887454854, -183527.3574027249, -0.054, 0.968, -0.22, 192.0, 0.0, 0.0, 0.0, 0.0, 0.0, 0.0, 0.0, 0.0, 0.0, 1.7184658079227421E9, 0.0, 2024-06-15 10:36:47.922
150.0, 3840.074400910664, -74170.1065504678, 44611.891461836276, -182705.9307939924, 61154.14931227557, -184370.93459021268, -163578.47017985227, -182003.12489308417, -0.054, 0.968, -0.22, 192.0, 0.0, 0.0, 0.0, 0.0, 0.0, 0.0, 0.0, 0.0, 0.0, 1.7184658079227583E9, 0.0, 2024-06-15 10:36:47.922
151.0, 1925.7368952914353, -76708.63887174593, 42232.50356107993, -184052.82456312474, 58026.089730988715, -185454.1224782613, -164808.59843595012, -183058.8648389417, -0.054, 0.968, -0.22, 192.0, 0.0, 0.0, 0.0, 0.0, 0.0, 0.0, 0.0, 0.0, 0.0, 1.7184658079227748E9, 0.0, 2024-06-15 10:36:47.922
152.0, -756.1818666674932, -80787.40755169482, 38284.134958283306, -186082.54177362227, 55793.888067470565, -186946.3249380976, -166616.58634145098, -184569.64159842033, -0.054, 0.968, -0.22, 192.0, 0.0, 0.0, 0.0, 0.0, 0.0, 0.0, 0.0, 0.0, 0.0, 1.7184658079227908E9, 0.0, 2024-06-15 10:36:47.922
153.0, 2277.374539062326, -77392.2669759115, 41242.41068868765, -184549.5026766661, 58937.61622162059, -185727.99840307218, -165121.65696879113, -183299.6154784698, -0.054, 0.968, -0.22, 192.0, 0.0, 0.0, 0.0, 0.0, 0.0, 0.0, 0.0, 0.0, 0.0, 1.7184658079228072E9, 0.0, 2024-06-15 10:36:47.922
154.0, 6454.356784147833, -72033.97268461857, 46039.49738019674, -182270.45175676965, 61207.994664668404, -184016.57003361822, -162961.58438463026, -181486.5984304665, -0.054, 0.968, -0.22, 192.0, 0.0, 0.0, 0.0, 0.0, 0.0, 0.0, 0.0, 0.0, 0.0, 1.7184658079228237E9, 0.0, 2024-06-15 10:36:47.922
155.0, 5261.578293034827, -73525.97397875476, 44600.58147914189, -183129.3845926982, 58646.08241869002, -184742.84526620453, -163750.71272262488, -182170.67356952114, -0.056, 0.978, -0.222, 192.0, 254.0, 64.0, 30.0, 144.0, 249.0, 16.0, 0.0, 0.0, 0.0, 1.7184658079228396E9, 0.0, 2024-06-15 10:36:47.922
156.0, 1851.685565911003, -78408.04200268292, 39903.496492325845, -185536.8462844904, 55654.52494079172, -186560.26560786553, -165939.32848445518, -184009.5292341148, -0.056, 0.978, -0.222, 192.0, 0.0, 0.0, 0.0, 0.0, 0.0, 0.0, 0.0, 0.0, 0.0, 1.718465807922856E9, 0.0, 2024-06-15 10:36:47.922
157.0, 3672.9727593627886, -76592.25333836715, 41374.62125714079, -184710.68110593333, 58085.52301949538, -185873.95529436533, -165104.37907032718, -183292.70878943312, -0.056, 0.978, -0.222, 192.0, 0.0, 0.0, 0.0, 0.0, 0.0, 0.0, 0.0, 0.0, 0.0, 1.7184658079228723E9, 0.0, 2024-06-15 10:36:47.922
158.0, 8084.581265995654, -70938.11135746377, 46419.16411151458, -182264.01445436652, 61094.09017492416, -184032.66328962604, -162791.75583025883, -181356.7124434367, -0.056, 0.978, -0.222, 192.0, 0.0, 0.0, 0.0, 0.0, 0.0, 0.0, 0.0, 0.0, 0.0, 1.7184658079228888E9, 0.0, 2024-06-15 10:36:47.922
159.0, 7774.7190326117325, -71211.92022704128, 46081.40690105044, -182561.27030387765, 59330.29166821142, -184334.76946768397, -163060.42379861162, -181606.64964993592, -0.056, 0.978, -0.222, 192.0, 0.0, 0.0, 0.0, 0.0, 0.0, 0.0, 0.0, 0.0, 0.0, 1.7184658079229052E9, 0.0, 2024-06-15 10:36:47.922
160.0, 4075.2818078138603, -76344.73012026909, 41167.33117906227, -185067.12437476212, 55901.22114434495, -186245.15071453463, -165352.37167505882, -183538.80149588603, -0.056, 0.978, -0.222, 192.0, 0.0, 0.0, 0.0, 0.0, 0.0, 0.0, 0.0, 0.0, 0.0, 1.7184658079229207E9, 0.0, 2024-06-15 10:36:47.922
161.0, 4754.037231688169, -76036.2983985303, 41212.59346158427, -184965.87097237958, 57435.89191864633, -186114.70593389345, -165197.8987691282, -183397.11378778386, -0.056, 0.978, -0.222, 192.0, 0.0, 0.0, 0.0, 0.0, 0.0, 0.0, 0.0, 0.0, 0.0, 1.7184658079229393E9, 0.0, 2024-06-15 10:36:47.922
162.0, 9291.754280537878, -70263.06632316904, 46341.80472395477, -182429.17149414678, 60991.920351018955, -184199.0720270958, -162807.51381009983, -181390.59768803095, -0.056, 0.978, -0.222, 192.0, 0.0, 0.0, 0.0, 0.0, 0.0, 0.0, 0.0, 0.0, 0.0, 1.7184658079229555E9, 0.0, 2024-06-15 10:36:47.922
163.0, 9952.740067570217, -69237.344770115, 47191.86391733455, -182134.55315048137, 60068.39097361457, -184051.21523752395, -162529.05577767562, -181178.2114122166, -0.056, 0.978, -0.222, 192.0, 0.0, 0.0, 0.0, 0.0, 0.0, 0.0, 0.0, 0.0, 0.0, 1.718465807922972E9, 0.0, 2024-06-15 10:36:47.922
164.0, 6186.873458251173, -74305.69223233369, 42396.29714444842, -184595.63667722186, 56386.54457170303, -185962.35644368606, -164801.78115389124, -183102.83072028527, -0.056, 0.978, -0.222, 192.0, 0.0, 0.0, 0.0, 0.0, 0.0, 0.0, 0.0, 0.0, 0.0, 1.7184658079229882E9, 0.0, 2024-06-15 10:36:47.922
165.0, 5622.000172376654, -75582.35682038746, 41010.444284730474, -185225.24061503896, 56881.63571138808, -186392.8957453842, -165327.44947999113, -183538.24270227467, -0.048, 0.978, -0.226, 192.0, 254.0, 128.0, 30.0, 144.0, 248.0, 240.0, 0.0, 0.0, 0.0, 1.7184658079230044E9, 0.0, 2024-06-15 10:36:47.923
166.0, 9969.414468933877, -70095.07061184295, 45914.12644554692, -182751.95303582586, 60735.38937990539, -184510.47653084714, -162988.9205680991, -181577.74884435523, -0.048, 0.978, -0.226, 192.0, 0.0, 0.0, 0.0, 0.0, 0.0, 0.0, 0.0, 0.0, 0.0, 1.71846580792302E9, 0.0, 2024-06-15 10:36:47.923
167.0, 11612.15592767667, -67743.2871154889, 47985.37319724241, -181869.34970251916, 60738.16099621785, -183914.80254111323, -162159.15675868472, -180911.26452818688, -0.048, 0.978, -0.226, 192.0, 0.0, 0.0, 0.0, 0.0, 0.0, 0.0, 0.0, 0.0, 0.0, 1.718465807923036E9, 0.0, 2024-06-15 10:36:47.923
168.0, 8334.65258296163, -72045.9085161577, 43922.094276201045, -183986.19401290346, 57167.2910055269, -185576.9453140432, -164117.37073866974, -182578.57055408604, -0.048, 0.978, -0.226, 192.0, 0.0, 0.0, 0.0, 0.0, 0.0, 0.0, 0.0, 0.0, 0.0, 1.7184658079230528E9, 0.0, 2024-06-15 10:36:47.923
169.0, 6911.181737325399, -74393.42282932077, 41523.573282190955, -185170.92587601257, 56646.83063588508, -186433.3524028483, -165159.07378900933, -183449.796849465, -0.048, 0.978, -0.226, 192.0, 0.0, 0.0, 0.0, 0.0, 0.0, 0.0, 0.0, 0.0, 0.0, 1.7184658079230728E9, 0.0, 2024-06-15 10:36:47.923
170.0, 10935.993306159176, -69313.60892219651, 46023.3147172111, -182889.32685724818, 60512.67659815271, -184689.0446173006, -162993.90500711263, -181637.4727055398, -0.048, 0.978, -0.226, 192.0, 0.0, 0.0, 0.0, 0.0, 0.0, 0.0, 0.0, 0.0, 0.0, 1.7184658079230936E9, 0.0, 2024-06-15 10:36:47.923
171.0, 13611.273600014878, -65555.20779552554, 49345.81212351467, -181385.6579525063, 61467.38665907225, -183610.2823746541, -161577.60907144655, -180476.83602295353, -0.048, 0.978, -0.226, 192.0, 0.0, 0.0, 0.0, 0.0, 0.0, 0.0, 0.0, 0.0, 0.0, 1.7184658079231105E9, 0.0, 2024-06-15 10:36:47.923
172.0, 10932.797006702067, -68872.60900409329, 46182.682655177436, -183105.64704008665, 58149.76193305993, -185002.86310945312, -163181.39143960376, -181862.86769662713, -0.048, 0.978, -0.226, 192.0, 0.0, 0.0, 0.0, 0.0, 0.0, 0.0, 0.0, 0.0, 0.0, 1.7184658079231286E9, 0.0, 2024-06-15 10:36:47.923
173.0, 8639.37391512083, -72218.41927986375, 42832.558492727105, -184836.05204058316, 56607.9609522773, -186299.26428786092, -164738.97275197183, -183185.42041604762, -0.048, 0.978, -0.226, 192.0, 0.0, 0.0, 0.0, 0.0, 0.0, 0.0, 0.0, 0.0, 0.0, 1.7184658079231448E9, 0.0, 2024-06-15 10:36:47.923
174.0, 12077.96628212527, -67929.90182994626, 46556.336767236804, -182930.6775844905, 60185.178838393556, -184829.6817934134, -162916.27739861936, -181662.99839770776, -0.048, 0.978, -0.226, 192.0, 0.0, 0.0, 0.0, 0.0, 0.0, 0.0, 0.0, 0.0, 0.0, 1.718465807923161E9, 0.0, 2024-06-15 10:36:47.923
175.0, 15512.848259550126, -63160.643060284034, 50766.913684238636, -180963.38879625665, 61965.38352553648, -183387.70370336817, -161061.52964371798, -180132.37328915278, -0.048, 0.978, -0.226, 192.0, 0.0, 0.0, 0.0, 0.0, 0.0, 0.0, 0.0, 0.0, 0.0, 1.7184658079231777E9, 0.0, 2024-06-15 10:36:47.923
176.0, 13454.498464405355, -65514.6617310836, 48500.4467964705, -182257.33128277436, 59047.653859574064, -184478.82646069844, -162272.79302749553, -181200.7196188831, -0.05, 0.964, -0.226, 192.0, 254.0, 112.0, 30.0, 32.0, 248.0, 240.0, 0.0, 0.0, 0.0, 1.718465807923194E9, 0.0, 2024-06-15 10:36:47.923
177.0, 10267.251463800843, -69897.36943213576, 44228.89432059459, -184456.29590228747, 56587.77732703416, -186156.77191695833, -164274.48115044608, -182909.3763720246, -0.05, 0.964, -0.226, 192.0, 0.0, 0.0, 0.0, 0.0, 0.0, 0.0, 0.0, 0.0, 0.0, 1.71846580792321E9, 0.0, 2024-06-15 10:36:47.923
178.0, 12506.628037289149, -67220.03277779017, 46508.48168235799, -183233.83429453784, 59497.259199292566, -185206.19692876303, -163086.75415357997, -181926.36900262465, -0.05, 0.964, -0.226, 192.0, 0.0, 0.0, 0.0, 0.0, 0.0, 0.0, 0.0, 0.0, 0.0, 1.7184658079232264E9, 0.0, 2024-06-15 10:36:47.923
179.0, 16152.868110283389, -62258.45959883447, 50964.79367790147, -181096.94046937712, 61980.51565653273, -183633.32702318754, -161070.73856243357, -180267.8025088075, -0.05, 0.964, -0.226, 192.0, 0.0, 0.0, 0.0, 0.0, 0.0, 0.0, 0.0, 0.0, 0.0, 1.7184658079232426E9, 0.0, 2024-06-15 10:36:47.923
180.0, 14724.122252955707, -63784.48024803165, 49552.56575972626, -181931.37579338264, 59696.61440808945, -184373.7732617585, -161850.2556503124, -180978.29740980835, -0.05, 0.964, -0.226, 192.0, 0.0, 0.0, 0.0, 0.0, 0.0, 0.0, 0.0, 0.0, 0.0, 1.718465807923259E9, 0.0, 2024-06-15 10:36:47.923
181.0, 10941.536538784092, -68878.44280939613, 44719.24689045511, -184406.2726981965, 56626.44584494184, -186280.04178762936, -164118.19775321457, -182915.09841860516, -0.05, 0.964, -0.226, 192.0, 0.0, 0.0, 0.0, 0.0, 0.0, 0.0, 0.0, 0.0, 0.0, 1.7184658079232752E9, 0.0, 2024-06-15 10:36:47.923
182.0, 12043.946927064291, -67741.27545848793, 45613.94251751215, -183869.27203765776, 58774.82846675259, -185845.4121166959, -163564.54504305663, -182467.39297716535, -0.05, 0.964, -0.226, 192.0, 0.0, 0.0, 0.0, 0.0, 0.0, 0.0, 0.0, 0.0, 0.0, 1.7184658079232912E9, 0.0, 2024-06-15 10:36:47.923
183.0, 15870.610281301771, -62592.01468134102, 50281.92553304738, -181543.88595150542, 61887.97943448776, -184106.42404632855, -161366.094513666, -180650.66553958243, -0.05, 0.964, -0.226, 192.0, 0.0, 0.0, 0.0, 0.0, 0.0, 0.0, 0.0, 0.0, 0.0, 1.7184658079233077E9, 0.0, 2024-06-15 10:36:47.923
184.0, 15136.80251083404, -63129.12710060205, 49813.81294891989, -181868.45563274095, 60326.64302905119, -184454.30659703095, -161668.62537486857, -180958.65022643213, -0.05, 0.964, -0.226, 192.0, 0.0, 0.0, 0.0, 0.0, 0.0, 0.0, 0.0, 0.0, 0.0, 1.718465807923324E9, 0.0, 2024-06-15 10:36:47.923
185.0, 10821.641781525825, -68754.50238639145, 44555.475658831085, -184545.97110104217, 56791.93816088893, -186543.5688547574, -164140.95182907008, -183079.49549907394, -0.05, 0.964, -0.226, 192.0, 0.0, 0.0, 0.0, 0.0, 0.0, 0.0, 0.0, 0.0, 0.0, 1.718465807923359E9, 0.0, 2024-06-15 10:36:47.923
186.0, 10478.162524481122, -69505.63275881205, 43718.40282897983, -184902.4814251043, 57943.254166037346, -186805.71011372926, -164424.48370748566, -183349.21399941613, -0.04, 0.9460000000000001, -0.222, 192.0, 254.0, 192.0, 29.0, 144.0, 249.0, 16.0, 0.0, 0.0, 0.0, 1.7184658079233859E9, 0.0, 2024-06-15 10:36:47.923
187.0, 14105.64948387736, -64687.82600019289, 48096.21549799627, -182685.30013386015, 61481.7141272681, -185151.77043101436, -162330.8181561015, -181627.19090309035, -0.04, 0.9460000000000001, -0.222, 192.0, 0.0, 0.0, 0.0, 0.0, 0.0, 0.0, 0.0, 0.0, 0.0, 1.7184658079234023E9, 0.0, 2024-06-15 10:36:47.923
188.0, 14095.770012828114, -64287.88623665408, 48513.03082859884, -182550.29559735008, 60755.70711561527, -185146.27190187835, -162201.64742489427, -181573.90434430892, -0.04, 0.9460000000000001, -0.222, 192.0, 0.0, 0.0, 0.0, 0.0, 0.0, 0.0, 0.0, 0.0, 0.0, 1.7184658079234185E9, 0.0, 2024-06-15 10:36:47.923
189.0, 9674.19262816818, -69970.95137488263, 43301.05105651034, -185175.463280137, 57109.04235947638, -187207.66153426905, -164628.77865180717, -183664.01596832467, -0.04, 0.9460000000000001, -0.222, 192.0, 0.0, 0.0, 0.0, 0.0, 0.0, 0.0, 0.0, 0.0, 0.0, 1.718465807923435E9, 0.0, 2024-06-15 10:36:47.923
190.0, 8083.038995628238, -72401.61417741945, 40988.91955482001, -186249.28578725885, 57281.262550504514, -187500.02235174447, -165568.84832010846, -184486.06842590196, -0.04, 0.9460000000000001, -0.222, 192.0, 0.0, 0.0, 0.0, 0.0, 0.0, 0.0, 0.0, 0.0, 0.0, 1.7184658079234512E9, 0.0, 2024-06-15 10:36:47.923
191.0, 11368.34309915818, -68153.06164658804, 44910.55547124809, -184205.1293498432, 61057.54507273973, -186469.78574631046, -163632.4272909674, -182896.8146916407, -0.04, 0.9460000000000001, -0.222, 192.0, 0.0, 0.0, 0.0, 0.0, 0.0, 0.0, 0.0, 0.0, 0.0, 1.7184658079234722E9, 0.0, 2024-06-15 10:36:47.923
192.0, 12216.211821581343, -66674.49375086949, 46356.28865436181, -183538.6673854193, 61278.49206668045, -186049.79646799524, -163002.59983570574, -182425.81873247848, -0.04, 0.9460000000000001, -0.222, 192.0, 0.0, 0.0, 0.0, 0.0, 0.0, 0.0, 0.0, 0.0, 0.0, 1.7184658079234889E9, 0.0, 2024-06-15 10:36:47.923
193.0, 8044.124608531548, -71914.74847969395, 41607.07939947598, -185946.97844350082, 57753.9795939898, -187500.02235174447, -165239.76358649298, -184371.35927335732, -0.04, 0.9460000000000001, -0.222, 192.0, 0.0, 0.0, 0.0, 0.0, 0.0, 0.0, 0.0, 0.0, 0.0, 1.718465807923505E9, 0.0, 2024-06-15 10:36:47.923
194.0, 5379.796669458946, -75693.04265893015, 38049.79926941387, -187500.02235174447, 56918.91842113953, -187500.02235174447, -166784.2244248658, -185709.51351040765, -0.04, 0.9460000000000001, -0.222, 192.0, 0.0, 0.0, 0.0, 0.0, 0.0, 0.0, 0.0, 0.0, 0.0, 1.7184658079235218E9, 0.0, 2024-06-15 10:36:47.923
195.0, 8184.4935637108765, -72104.87241803079, 41326.05091643941, -185894.6306579865, 60628.43628268675, -187500.02235174447, -165100.80279121434, -184330.96967112657, -0.04, 0.9460000000000001, -0.222, 192.0, 0.0, 0.0, 0.0, 0.0, 0.0, 0.0, 0.0, 0.0, 0.0, 1.718465807923538E9, 0.0, 2024-06-15 10:36:47.923
196.0, 9939.552538341588, -69450.55806047417, 43795.80692002856, -184710.16701581088, 61752.28199389959, -187106.94457375343, -163984.5566731163, -183449.86390469837, -0.014, 0.9540000000000001, -0.20400000000000001, 192.0, 255.0, 144.0, 29.0, 208.0, 249.0, 160.0, 0.0, 0.0, 0.0, 1.7184658079235544E9, 0.0, 2024-06-15 10:36:47.923
197.0, 6484.486935673587, -73688.47116094484, 39968.04833031277, -186656.64632995683, 58572.50047594315, -187500.02235174447, -165797.84194205308, -185039.2741011708, -0.014, 0.9540000000000001, -0.20400000000000001, 192.0, 0.0, 0.0, 0.0, 0.0, 0.0, 0.0, 0.0, 0.0, 0.0, 1.7184658079235704E9, 0.0, 2024-06-15 10:36:47.923
198.0, 3175.7582039544827, -78326.56989414334, 35609.54756850572, -187500.02235174447, 56786.21611430837, -187500.02235174447, -167734.55354387208, -186701.7745020121, -0.014, 0.9540000000000001, -0.20400000000000001, 192.0, 0.0, 0.0, 0.0, 0.0, 0.0, 0.0, 0.0, 0.0, 0.0, 1.718465807923587E9, 0.0, 2024-06-15 10:36:47.923
199.0, 5423.8966612692675, -75619.103088272, 38043.65253968866, -187437.41511552516, 60083.67956682201, -187500.02235174447, -166438.46528988663, -185641.13952411886, -0.014, 0.9540000000000001, -0.20400000000000001, 192.0, 0.0, 0.0, 0.0, 0.0, 0.0, 0.0, 0.0, 0.0, 0.0, 1.7184658079236023E9, 0.0, 2024-06-15 10:36:47.923
200.0, 7947.945052140361, -72079.57024330739, 41296.97129690305, -185860.49954420325, 61980.426249554905, -187500.02235174447, -164965.4853302819, -184452.65256794126, -0.014, 0.9540000000000001, -0.20400000000000001, 192.0, 0.0, 0.0, 0.0, 0.0, 0.0, 0.0, 0.0, 0.0, 0.0, 1.7184658079236183E9, 0.0, 2024-06-15 10:36:47.923
201.0, 5293.407177139185, -75267.37603752328, 38436.50680023513, -187335.8711404647, 59259.52604526592, -187500.02235174447, -166351.002913833, -185677.39405362535, -0.014, 0.9540000000000001, -0.20400000000000001, 192.0, 0.0, 0.0, 0.0, 0.0, 0.0, 0.0, 0.0, 0.0, 0.0, 1.7184658079236338E9, 0.0, 2024-06-15 10:36:47.923
202.0, 1379.3932055703647, -80674.46418696216, 33378.41878872142, -187500.02235174447, 56619.650914627426, -187500.02235174447, -168630.4561651297, -187500.02235174447, -0.014, 0.9540000000000001, -0.20400000000000001, 192.0, 0.0, 0.0, 0.0, 0.0, 0.0, 0.0, 0.0, 0.0, 0.0, 1.7184658079236495E9, 0.0, 2024-06-15 10:36:47.923
203.0, 2708.8973175164842, -79280.67645796257, 34586.15059687503, -187500.02235174447, 59240.258841545445, -187500.02235174447, -167900.29172900817, -187033.2508722843, -0.014, 0.9540000000000001, -0.20400000000000001, 192.0, 0.0, 0.0, 0.0, 0.0, 0.0, 0.0, 0.0, 0.0, 0.0, 1.718465807923666E9, 0.0, 2024-06-15 10:36:47.923
204.0, 5838.610927893034, -75074.14520670715, 38440.932445637285, -187130.70447810943, 61912.11931849949, -187500.02235174447, -166086.4029629711, -185540.98135721462, -0.014, 0.9540000000000001, -0.20400000000000001, 192.0, 0.0, 0.0, 0.0, 0.0, 0.0, 0.0, 0.0, 0.0, 0.0, 1.718465807923682E9, 0.0, 2024-06-15 10:36:47.923
205.0, 4122.108712447728, -77038.0365297838, 36715.40012543203, -187500.02235174447, 59875.58482594309, -187500.02235174447, -166957.5622031167, -186329.3273841533, -0.014, 0.9540000000000001, -0.20400000000000001, 192.0, 0.0, 0.0, 0.0, 0.0, 0.0, 0.0, 0.0, 0.0, 0.0, 1.718465807923698E9, 0.0, 2024-06-15 10:36:47.923
206.0, -144.77224883702385, -82861.58238191395, 31327.802697158182, -187500.02235174447, 56676.15612461044, -187500.02235174447, -169443.25500050248, -187500.02235174447, -0.012, 0.964, -0.198, 192.0, 255.0, 160.0, 30.0, 32.0, 249.0, 208.0, 0.0, 0.0, 0.0, 1.7184658079237137E9, 0.0, 2024-06-15 10:36:47.923
0.0, 0.0, 0.0, 0.0, 0.0, 0.0, 0.0, 0.0, 0.0, 0.018000000000000002, 0.9420000000000001, -0.27, 192.0, 0.0, 144.0, 29.0, 112.0, 247.0, 144.0, 0.0, 0.0, 0.0, 1.7184658079914002E9, 0.0, 2024-06-15 10:36:47.991
1.0, 47840.6903553832, -107482.49828606824, -114770.84335933249, -187500.02235174447, 89494.30608681514, -187500.02235174447, -187500.02235174447, -187500.02235174447, 0.018000000000000002, 0.9420000000000001, -0.27, 192.0, 0.0, 0.0, 0.0, 0.0, 0.0, 0.0, 0.0, 0.0, 0.0, 1.7184658080074227E9, 0.0, 2024-06-15 10:36:48.007
2.0, 48991.916953553795, -107104.35147337336, -114486.35035590535, -187500.02235174447, 90029.49625605301, -187500.02235174447, -187500.02235174447, -187500.02235174447, 0.018000000000000002, 0.9420000000000001, -0.27, 192.0, 0.0, 0.0, 0.0, 0.0, 0.0, 0.0, 0.0, 0.0, 0.0, 1.7184658084871254E9, 0.0, 2024-06-15 10:36:48.487
3.0, 52245.61569042393, -99262.5772073957, -109779.38589804005, -187500.02235174447, 93449.58137864845, -187500.02235174447, -187500.02235174447, -187500.02235174447, 0.018000000000000002, 0.9420000000000001, -0.27, 192.0, 0.0, 0.0, 0.0, 0.0, 0.0, 0.0, 0.0, 0.0, 0.0, 1.7184658084872086E9, 0.0, 2024-06-15 10:36:48.487
4.0, 51620.61621196464, -98573.02589094949, -109485.92984508633, -187500.02235174447, 93232.34477428732, -187500.02235174447, -187500.02235174447, -187500.02235174447, 0.018000000000000002, 0.9420000000000001, -0.27, 192.0, 0.0, 0.0, 0.0, 0.0, 0.0, 0.0, 0.0, 0.0, 0.0, 1.7184658084872825E9, 0.0, 2024-06-15 10:36:48.487
5.0, 48176.30179837964, -106419.62813372948, -114217.07889045226, -187500.02235174447, 89632.7080884824, -187500.02235174447, -187500.02235174447, -187500.02235174447, 0.018000000000000002, 0.9420000000000001, -0.27, 192.0, 0.0, 0.0, 0.0, 0.0, 0.0, 0.0, 0.0, 0.0, 0.0, 1.7184658084873066E9, 0.0, 2024-06-15 10:36:48.487
6.0, 48377.266332777304, -108307.92585705828, -115251.15999593258, -187500.02235174447, 89215.93746136874, -187500.02235174447, -187500.02235174447, -187500.02235174447, 0.018000000000000002, 0.9420000000000001, -0.27, 192.0, 0.0, 0.0, 0.0, 0.0, 0.0, 0.0, 0.0, 0.0, 0.0, 1.7184658084873433E9, 0.0, 2024-06-15 10:36:48.487
7.0, 51908.886660204735, -100357.56681651674, -110568.89421569041, -187500.02235174447, 92681.30721823064, -187500.02235174447, -187500.02235174447, -187500.02235174447, 0.018000000000000002, 0.9420000000000001, -0.27, 192.0, 0.0, 0.0, 0.0, 0.0, 0.0, 0.0, 0.0, 0.0, 0.0, 1.7184658084873643E9, 0.0, 2024-06-15 10:36:48.487
8.0, 52071.83087728392, -97769.63713999238, -109088.4487734376, -187500.02235174447, 93369.22685733163, -187500.02235174447, -187500.02235174447, -187500.02235174447, 0.026000000000000002, 0.91, -0.304, 192.0, 0.0, 208.0, 28.0, 112.0, 246.0, 128.0, 0.0, 0.0, 0.0, 1.7184658084873831E9, 0.0, 2024-06-15 10:36:48.487
9.0, 48575.57100958479, -105199.580514381, -113557.0095249426, -187500.02235174447, 89885.6180769942, -187500.02235174447, -187500.02235174447, -187500.02235174447, 0.026000000000000002, 0.91, -0.304, 192.0, 0.0, 0.0, 0.0, 0.0, 0.0, 0.0, 0.0, 0.0, 0.0, 1.7184658084874232E9, 0.0, 2024-06-15 10:36:48.487
10.0, 47819.16562547274, -109346.38790445184, -115834.85345063847, -187500.02235174447, 88571.06728208868, -187500.02235174447, -187500.02235174447, -187500.02235174447, 0.026000000000000002, 0.91, -0.304, 192.0, 0.0, 0.0, 0.0, 0.0, 0.0, 0.0, 0.0, 0.0, 0.0, 1.7184658084874427E9, 0.0, 2024-06-15 10:36:48.487
11.0, 51398.9316104569, -101871.4951719636, -111540.70336111824, -187500.02235174447, 91809.4774257514, -187500.02235174447, -187500.02235174447, -187500.02235174447, 0.026000000000000002, 0.91, -0.304, 192.0, 0.0, 0.0, 0.0, 0.0, 0.0, 0.0, 0.0, 0.0, 0.0, 1.7184658084874773E9, 0.0, 2024-06-15 10:36:48.487
12.0, 52387.973950859785, -97537.8719017353, -109019.60540051525, -187500.02235174447, 93325.59625215486, -187500.02235174447, -187500.02235174447, -187500.02235174447, 0.026000000000000002, 0.91, -0.304, 192.0, 0.0, 0.0, 0.0, 0.0, 0.0, 0.0, 0.0, 0.0, 0.0, 1.718465808487497E9, 0.0, 2024-06-15 10:36:48.487
13.0, 49210.941697471346, -103726.980534432, -112759.25341358823, -187500.02235174447, 90308.96011697772, -187500.02235174447, -187500.02235174447, -187500.02235174447, 0.026000000000000002, 0.91, -0.304, 192.0, 0.0, 0.0, 0.0, 0.0, 0.0, 0.0, 0.0, 0.0, 0.0, 1.7184658084875364E9, 0.0, 2024-06-15 10:36:48.487
14.0, 47513.684334002064, -109771.89806364752, -116124.37559656806, -187500.02235174447, 88171.30633250551, -187500.02235174447, -187500.02235174447, -187500.02235174447, 0.026000000000000002, 0.91, -0.304, 192.0, 0.0, 0.0, 0.0, 0.0, 0.0, 0.0, 0.0, 0.0, 0.0, 1.7184658084875555E9, 0.0, 2024-06-15 10:36:48.487
15.0, 50725.808826185326, -103678.09726930824, -112649.70751401276, -187500.02235174447, 90905.12584508966, -187500.02235174447, -187500.02235174447, -187500.02235174447, 0.026000000000000002, 0.91, -0.304, 192.0, 0.0, 0.0, 0.0, 0.0, 0.0, 0.0, 0.0, 0.0, 0.0, 1.7184658084875753E9, 0.0, 2024-06-15 10:36:48.487
16.0, 52486.34397820759, -97867.67189117336, -109201.3250829369, -187500.02235174447, 93190.3458464558, -187500.02235174447, -187500.02235174447, -187500.02235174447, 0.026000000000000002, 0.91, -0.304, 192.0, 0.0, 0.0, 0.0, 0.0, 0.0, 0.0, 0.0, 0.0, 0.0, 1.7184658084875932E9, 0.0, 2024-06-15 10:36:48.487
17.0, 49866.20543792313, -102371.92837857347, -112020.08122445122, -187500.02235174447, 90763.39343349855, -187500.02235174447, -187500.02235174447, -187500.02235174447, 0.026000000000000002, 0.91, -0.304, 192.0, 0.0, 0.0, 0.0, 0.0, 0.0, 0.0, 0.0, 0.0, 0.0, 1.7184658084876485E9, 0.0, 2024-06-15 10:36:48.487
18.0, 47457.42499320806, -109593.32997719408, -116143.4639863329, -187500.02235174447, 87966.00555968352, -187500.02235174447, -187500.02235174447, -187500.02235174447, 0.048, 0.92, -0.326, 192.0, 1.0, 128.0, 28.0, 192.0, 245.0, 208.0, 0.0, 0.0, 0.0, 1.7184658084876688E9, 0.0, 2024-06-15 10:36:48.487
19.0, 50055.032975081565, -105385.39056603797, -113683.52039855963, -187500.02235174447, 90059.08996571183, -187500.02235174447, -187500.02235174447, -187500.02235174447, 0.048, 0.92, -0.326, 192.0, 0.0, 0.0, 0.0, 0.0, 0.0, 0.0, 0.0, 0.0, 0.0, 1.7184658084876888E9, 0.0, 2024-06-15 10:36:48.487
20.0, 52433.59386129306, -98556.95498668612, -109574.59921534052, -187500.02235174447, 92938.84401784469, -187500.02235174447, -187500.02235174447, -187500.02235174447, 0.048, 0.92, -0.326, 192.0, 0.0, 0.0, 0.0, 0.0, 0.0, 0.0, 0.0, 0.0, 0.0, 1.7184658084877088E9, 0.0, 2024-06-15 10:36:48.487
21.0, 50455.79975316522, -101259.1020773771, -111386.65513833227, -187500.02235174447, 91194.78210148598, -187500.02235174447, -187500.02235174447, -187500.02235174447, 0.048, 0.92, -0.326, 192.0, 0.0, 0.0, 0.0, 0.0, 0.0, 0.0, 0.0, 0.0, 0.0, 1.7184658084877295E9, 0.0, 2024-06-15 10:36:48.487
22.0, 47532.616261555704, -109171.53020757798, -116018.383624361, -187500.02235174447, 87896.6480966387, -187500.02235174447, -187500.02235174447, -187500.02235174447, 0.048, 0.92, -0.326, 192.0, 0.0, 0.0, 0.0, 0.0, 0.0, 0.0, 0.0, 0.0, 0.0, 1.7184658084877636E9, 0.0, 2024-06-15 10:36:48.487
23.0, 49363.559408612186, -107091.65568252275, -114766.01538253015, -187500.02235174447, 89159.96869325265, -187500.02235174447, -187500.02235174447, -187500.02235174447, 0.048, 0.92, -0.326, 192.0, 0.0, 0.0, 0.0, 0.0, 0.0, 0.0, 0.0, 0.0, 0.0, 1.718465808487815E9, 0.0, 2024-06-15 10:36:48.487
24.0, 52271.40960352535, -99502.29966667887, -110181.96316742459, -187500.02235174447, 92480.36503557743, -187500.02235174447, -187500.02235174447, -187500.02235174447, 0.048, 0.92, -0.326, 192.0, 0.0, 0.0, 0.0, 0.0, 0.0, 0.0, 0.0, 0.0, 0.0, 1.7184658084878314E9, 0.0, 2024-06-15 10:36:48.487
25.0, 50993.76153871555, -100385.95353197498, -110862.95376574443, -187500.02235174447, 91534.64037592892, -187500.02235174447, -187500.02235174447, -187500.02235174447, 0.048, 0.92, -0.326, 192.0, 0.0, 0.0, 0.0, 0.0, 0.0, 0.0, 0.0, 0.0, 0.0, 1.718465808487882E9, 0.0, 2024-06-15 10:36:48.487
26.0, 47737.02296459949, -108509.44918506732, -115691.82463786897, -187500.02235174447, 87935.62953896876, -187500.02235174447, -187500.02235174447, -187500.02235174447, 0.048, 0.92, -0.326, 192.0, 0.0, 0.0, 0.0, 0.0, 0.0, 0.0, 0.0, 0.0, 0.0, 1.7184658084878957E9, 0.0, 2024-06-15 10:36:48.487
27.0, 48703.40063612469, -108651.53922456971, -115709.057832844, -187500.02235174447, 88273.92319129982, -187500.02235174447, -187500.02235174447, -187500.02235174447, 0.048, 0.92, -0.326, 192.0, 0.0, 0.0, 0.0, 0.0, 0.0, 0.0, 0.0, 0.0, 0.0, 1.7184658084879253E9, 0.0, 2024-06-15 10:36:48.487
28.0, 51939.41914313068, -100828.2498512566, -111033.16229977159, -187500.02235174447, 91740.8575702736, -187500.02235174447, -187500.02235174447, -187500.02235174447, 0.054, 0.908, -0.342, 192.0, 1.0, 176.0, 28.0, 96.0, 245.0, 80.0, 0.0, 0.0, 0.0, 1.7184658084879432E9, 0.0, 2024-06-15 10:36:48.487
29.0, 51449.53595990372, -99833.48546427315, -110548.35296253598, -187500.02235174447, 91699.61860175355, -187500.02235174447, -187500.02235174447, -187500.02235174447, 0.054, 0.908, -0.342, 192.0, 0.0, 0.0, 0.0, 0.0, 0.0, 0.0, 0.0, 0.0, 0.0, 1.7184658084879613E9, 0.0, 2024-06-15 10:36:48.487
30.0, 48127.75380942271, -107539.47288268481, -115190.69852718098, -187500.02235174447, 88128.99448025161, -187500.02235174447, -187500.02235174447, -187500.02235174447, 0.054, 0.908, -0.342, 192.0, 0.0, 0.0, 0.0, 0.0, 0.0, 0.0, 0.0, 0.0, 0.0, 1.7184658084879787E9, 0.0, 2024-06-15 10:36:48.487
31.0, 48165.237684874264, -109876.21365502045, -116460.54583317589, -187500.02235174447, 87547.60325522462, -187500.02235174447, -187500.02235174447, -187500.02235174447, 0.054, 0.908, -0.342, 192.0, 0.0, 0.0, 0.0, 0.0, 0.0, 0.0, 0.0, 0.0, 0.0, 1.7184658084879937E9, 0.0, 2024-06-15 10:36:48.487
32.0, 51545.67081280599, -102253.84411261608, -111925.33217970518, -187500.02235174447, 91014.93996559859, -187500.02235174447, -187500.02235174447, -187500.02235174447, 0.054, 0.908, -0.342, 192.0, 0.0, 0.0, 0.0, 0.0, 0.0, 0.0, 0.0, 0.0, 0.0, 1.7184658084880073E9, 0.0, 2024-06-15 10:36:48.488
33.0, 51843.21723499504, -99430.48351174397, -110293.20779957865, -187500.02235174447, 91884.02049350983, -187500.02235174447, -187500.02235174447, -187500.02235174447, 0.054, 0.908, -0.342, 192.0, 0.0, 0.0, 0.0, 0.0, 0.0, 0.0, 0.0, 0.0, 0.0, 1.7184658084880216E9, 0.0, 2024-06-15 10:36:48.488
34.0, 48627.91879509912, -106335.8984989999, -114544.62135370034, -187500.02235174447, 88481.45913856736, -187500.02235174447, -187500.02235174447, -187500.02235174447, 0.054, 0.908, -0.342, 192.0, 0.0, 0.0, 0.0, 0.0, 0.0, 0.0, 0.0, 0.0, 0.0, 1.718465808488057E9, 0.0, 2024-06-15 10:36:48.488
35.0, 47724.68480166016, -110790.42235498695, -117058.96908747782, -187500.02235174447, 86935.5230850605, -187500.02235174447, -187500.02235174447, -187500.02235174447, 0.054, 0.908, -0.342, 192.0, 0.0, 0.0, 0.0, 0.0, 0.0, 0.0, 0.0, 0.0, 0.0, 1.718465808488079E9, 0.0, 2024-06-15 10:36:48.488
36.0, 51035.20167293569, -103908.20847847563, -112971.59498591365, -187500.02235174447, 90164.99253094108, -187500.02235174447, -187500.02235174447, -187500.02235174447, 0.054, 0.908, -0.342, 192.0, 0.0, 0.0, 0.0, 0.0, 0.0, 0.0, 0.0, 0.0, 0.0, 1.7184658084881182E9, 0.0, 2024-06-15 10:36:48.488
37.0, 52137.54500598252, -99326.36908607115, -110224.99027550106, -187500.02235174447, 91946.56067449578, -187500.02235174447, -187500.02235174447, -187500.02235174447, 0.054, 0.908, -0.342, 192.0, 0.0, 0.0, 0.0, 0.0, 0.0, 0.0, 0.0, 0.0, 0.0, 1.718465808488142E9, 0.0, 2024-06-15 10:36:48.488
38.0, 49249.96784329032, -104975.88425587228, -113790.24997833371, -187500.02235174447, 88957.05955708737, -187500.02235174447, -187500.02235174447, -187500.02235174447, 0.054, 0.908, -0.342, 192.0, 0.0, 0.0, 0.0, 0.0, 0.0, 0.0, 0.0, 0.0, 0.0, 1.7184658084881673E9, 0.0, 2024-06-15 10:36:48.488
39.0, 47554.65508158864, -111084.19133236306, -117262.23585155439, -187500.02235174447, 86637.12729658214, -187500.02235174447, -187500.02235174447, -187500.02235174447, 0.062, 0.896, -0.356, 192.0, 1.0, 240.0, 28.0, 0.0, 244.0, 224.0, 0.0, 0.0, 0.0, 1.7184658084881885E9, 0.0, 2024-06-15 10:36:48.488
40.0, 50524.41960864301, -105482.30772999617, -113940.43134932892, -187500.02235174447, 89355.5911607255, -187500.02235174447, -187500.02235174447, -187500.02235174447, 0.062, 0.896, -0.356, 192.0, 0.0, 0.0, 0.0, 0.0, 0.0, 0.0, 0.0, 0.0, 0.0, 1.7184658084882085E9, 0.0, 2024-06-15 10:36:48.488
41.0, 52353.149932998414, -99421.20753779502, -110276.51104647054, -187500.02235174447, 91895.50929015987, -187500.02235174447, -187500.02235174447, -187500.02235174447, 0.062, 0.896, -0.356, 192.0, 0.0, 0.0, 0.0, 0.0, 0.0, 0.0, 0.0, 0.0, 0.0, 1.7184658084882276E9, 0.0, 2024-06-15 10:36:48.488
42.0, 49980.98164570113, -103450.62356598659, -112875.92951964492, -187500.02235174447, 89557.11448873454, -187500.02235174447, -187500.02235174447, -187500.02235174447, 0.062, 0.896, -0.356, 192.0, 0.0, 0.0, 0.0, 0.0, 0.0, 0.0, 0.0, 0.0, 0.0, 1.7184658084882472E9, 0.0, 2024-06-15 10:36:48.488
43.0, 47593.41300647414, -110776.60897691357, -117077.81160805364, -187500.02235174447, 86580.62208659913, -187500.02235174447, -187500.02235174447, -187500.02235174447, 0.062, 0.896, -0.356, 192.0, 0.0, 0.0, 0.0, 0.0, 0.0, 0.0, 0.0, 0.0, 0.0, 1.7184658084882667E9, 0.0, 2024-06-15 10:36:48.488
44.0, 49946.00116562858, -107035.12812079527, -114864.94420348933, -187500.02235174447, 88505.62137432354, -187500.02235174447, -187500.02235174447, -187500.02235174447, 0.062, 0.896, -0.356, 192.0, 0.0, 0.0, 0.0, 0.0, 0.0, 0.0, 0.0, 0.0, 0.0, 1.7184658084882865E9, 0.0, 2024-06-15 10:36:48.488
45.0, 52387.951599115324, -99870.18702866878, -110527.02939832561, -187500.02235174447, 91626.30487994014, -187500.02235174447, -187500.02235174447, -187500.02235174447, 0.062, 0.896, -0.356, 192.0, 0.0, 0.0, 0.0, 0.0, 0.0, 0.0, 0.0, 0.0, 0.0, 1.7184658084883063E9, 0.0, 2024-06-15 10:36:48.488
46.0, 50617.71578999946, -102117.0514365496, -112041.6506578506, -187500.02235174447, 90044.62838704925, -187500.02235174447, -187500.02235174447, -187500.02235174447, 0.062, 0.896, -0.356, 192.0, 0.0, 0.0, 0.0, 0.0, 0.0, 0.0, 0.0, 0.0, 0.0, 1.7184658084883273E9, 0.0, 2024-06-15 10:36:48.488
47.0, 47706.08815027335, -110202.30325487892, -116777.29240385204, -187500.02235174447, 86499.10527457063, -187500.02235174447, -187500.02235174447, -187500.02235174447, 0.062, 0.896, -0.356, 192.0, 0.0, 0.0, 0.0, 0.0, 0.0, 0.0, 0.0, 0.0, 0.0, 1.7184658084883492E9, 0.0, 2024-06-15 10:36:48.488
48.0, 49336.58085305463, -108572.30229047565, -115767.55234808354, -187500.02235174447, 87542.75292667781, -187500.02235174447, -187500.02235174447, -187500.02235174447, 0.062, 0.896, -0.356, 192.0, 0.0, 0.0, 0.0, 0.0, 0.0, 0.0, 0.0, 0.0, 0.0, 1.718465808488368E9, 0.0, 2024-06-15 10:36:48.488
49.0, 52246.57681543551, -100750.91281544123, -111056.11754132718, -187500.02235174447, 91032.6872506961, -187500.02235174447, -187500.02235174447, -187500.02235174447, 0.06, 0.896, -0.372, 192.0, 1.0, 224.0, 28.0, 0.0, 244.0, 96.0, 0.0, 0.0, 0.0, 1.7184658084883866E9, 0.0, 2024-06-15 10:36:48.488
50.0, 51171.36850015742, -101127.31619206861, -111425.68128415124, -187500.02235174447, 90310.43533211177, -187500.02235174447, -187500.02235174447, -187500.02235174447, 0.06, 0.896, -0.372, 192.0, 0.0, 0.0, 0.0, 0.0, 0.0, 0.0, 0.0, 0.0, 0.0, 1.718465808488406E9, 0.0, 2024-06-15 10:36:48.488
51.0, 47998.091339837476, -109254.1869585737, -116254.77567372033, -187500.02235174447, 86544.14403964806, -187500.02235174447, -187500.02235174447, -187500.02235174447, 0.06, 0.896, -0.372, 192.0, 0.0, 0.0, 0.0, 0.0, 0.0, 0.0, 0.0, 0.0, 0.0, 1.7184658084884264E9, 0.0, 2024-06-15 10:36:48.488
52.0, 48767.32662526687, -109869.75400087285, -116530.79736599892, -187500.02235174447, 86617.9942033284, -187500.02235174447, -187500.02235174447, -187500.02235174447, 0.06, 0.896, -0.372, 192.0, 0.0, 0.0, 0.0, 0.0, 0.0, 0.0, 0.0, 0.0, 0.0, 1.7184658084884465E9, 0.0, 2024-06-15 10:36:48.488
53.0, 51969.95162605663, -101842.66142161626, -111724.01001739623, -187500.02235174447, 90274.87370668337, -187500.02235174447, -187500.02235174447, -187500.02235174447, 0.06, 0.896, -0.372, 192.0, 0.0, 0.0, 0.0, 0.0, 0.0, 0.0, 0.0, 0.0, 0.0, 1.718465808488466E9, 0.0, 2024-06-15 10:36:48.488
54.0, 51664.58209330823, -100272.96546375341, -110868.47464662489, -187500.02235174447, 90520.47467475828, -187500.02235174447, -187500.02235174447, -187500.02235174447, 0.06, 0.896, -0.372, 192.0, 0.0, 0.0, 0.0, 0.0, 0.0, 0.0, 0.0, 0.0, 0.0, 1.718465808488485E9, 0.0, 2024-06-15 10:36:48.488
55.0, 48452.72582205842, -107888.1153926987, -115474.34216431883, -187500.02235174447, 86766.54389697837, -187500.02235174447, -187500.02235174447, -187500.02235174447, 0.06, 0.896, -0.372, 192.0, 0.0, 0.0, 0.0, 0.0, 0.0, 0.0, 0.0, 0.0, 0.0, 1.7184658084885037E9, 0.0, 2024-06-15 10:36:48.488
56.0, 48318.3024309042, -110723.81415651014, -117021.32874981509, -187500.02235174447, 85823.59085364234, -187500.02235174447, -187500.02235174447, -187500.02235174447, 0.06, 0.896, -0.372, 192.0, 0.0, 0.0, 0.0, 0.0, 0.0, 0.0, 0.0, 0.0, 0.0, 1.7184658084885228E9, 0.0, 2024-06-15 10:36:48.488
57.0, 51563.08282173667, -103119.30365792557, -112491.99360513611, -187500.02235174447, 89349.33267227802, -187500.02235174447, -187500.02235174447, -187500.02235174447, 0.06, 0.896, -0.372, 192.0, 0.0, 0.0, 0.0, 0.0, 0.0, 0.0, 0.0, 0.0, 0.0, 1.718465808488542E9, 0.0, 2024-06-15 10:36:48.488
58.0, 51990.537582699966, -99811.1560715623, -110556.37723879544, -187500.02235174447, 90477.44756668182, -187500.02235174447, -187500.02235174447, -187500.02235174447, 0.06, 0.896, -0.372, 192.0, 0.0, 0.0, 0.0, 0.0, 0.0, 0.0, 0.0, 0.0, 0.0, 1.7184658084885604E9, 0.0, 2024-06-15 10:36:48.488
59.0, 48944.97829019765, -106496.42872767792, -114681.90576814483, -187500.02235174447, 86940.23930314057, -187500.02235174447, -187500.02235174447, -187500.02235174447, 0.062, 0.894, -0.376, 192.0, 1.0, 240.0, 27.0, 240.0, 244.0, 64.0, 0.0, 0.0, 0.0, 1.7184658084885793E9, 0.0, 2024-06-15 10:36:48.488
60.0, 47922.85536800091, -111363.07404793192, -117422.11787964319, -187500.02235174447, 84974.93982016323, -187500.02235174447, -187500.02235174447, -187500.02235174447, 0.062, 0.894, -0.376, 192.0, 0.0, 0.0, 0.0, 0.0, 0.0, 0.0, 0.0, 0.0, 0.0, 1.7184658084886007E9, 0.0, 2024-06-15 10:36:48.488
61.0, 51007.28434411101, -104722.92956387157, -113481.6394426393, -187500.02235174447, 88105.18987240671, -187500.02235174447, -187500.02235174447, -187500.02235174447, 0.062, 0.894, -0.376, 192.0, 0.0, 0.0, 0.0, 0.0, 0.0, 0.0, 0.0, 0.0, 0.0, 1.7184658084886358E9, 0.0, 2024-06-15 10:36:48.488
62.0, 52184.93070422777, -99761.57990236043, -110498.55327588956, -187500.02235174447, 90130.28027180198, -187500.02235174447, -187500.02235174447, -187500.02235174447, 0.062, 0.894, -0.376, 192.0, 0.0, 0.0, 0.0, 0.0, 0.0, 0.0, 0.0, 0.0, 0.0, 1.718465808488646E9, 0.0, 2024-06-15 10:36:48.488
63.0, 49491.41138689654, -105085.11723102538, -113888.7764678927, -187500.02235174447, 87060.6034470324, -187500.02235174447, -187500.02235174447, -187500.02235174447, 0.062, 0.894, -0.376, 192.0, 0.0, 0.0, 0.0, 0.0, 0.0, 0.0, 0.0, 0.0, 0.0, 1.718465808488656E9, 0.0, 2024-06-15 10:36:48.488
64.0, 47697.683894358146, -111583.46224826125, -117633.78889963495, -187500.02235174447, 84194.5733659951, -187500.02235174447, -187500.02235174447, -187500.02235174447, 0.062, 0.894, -0.376, 192.0, 0.0, 0.0, 0.0, 0.0, 0.0, 0.0, 0.0, 0.0, 0.0, 1.7184658084886663E9, 0.0, 2024-06-15 10:36:48.488
65.0, 50373.50063008078, -106443.41038982992, -114596.298586881, -187500.02235174447, 86651.54417175581, -187500.02235174447, -187500.02235174447, -187500.02235174447, 0.062, 0.894, -0.376, 192.0, 0.0, 0.0, 0.0, 0.0, 0.0, 0.0, 0.0, 0.0, 0.0, 1.7184658084886763E9, 0.0, 2024-06-15 10:36:48.488
66.0, 52181.600294303935, -100152.51191288375, -110807.47673600636, -187500.02235174447, 89371.66206498886, -187500.02235174447, -187500.02235174447, -187500.02235174447, 0.062, 0.894, -0.376, 192.0, 0.0, 0.0, 0.0, 0.0, 0.0, 0.0, 0.0, 0.0, 0.0, 1.718465808488686E9, 0.0, 2024-06-15 10:36:48.488
67.0, 49998.48306160964, -103832.81604442789, -113246.36498050272, -187500.02235174447, 86970.14593722177, -187500.02235174447, -187500.02235174447, -187500.02235174447, 0.062, 0.894, -0.376, 192.0, 0.0, 0.0, 0.0, 0.0, 0.0, 0.0, 0.0, 0.0, 0.0, 1.7184658084886963E9, 0.0, 2024-06-15 10:36:48.488
68.0, 47630.69571622559, -111401.54140013951, -117659.78397843648, -187500.02235174447, 83424.51106602086, -187500.02235174447, -187500.02235174447, -187500.02235174447, 0.062, 0.894, -0.376, 192.0, 0.0, 0.0, 0.0, 0.0, 0.0, 0.0, 0.0, 0.0, 0.0, 1.7184658084887073E9, 0.0, 2024-06-15 10:36:48.488
69.0, 49727.781084511415, -108168.20510246816, -115717.32797829247, -187500.02235174447, 85015.66469856081, -187500.02235174447, -187500.02235174447, -187500.02235174447, 0.066, 0.898, -0.384, 192.0, 2.0, 16.0, 28.0, 16.0, 244.0, 0.0, 0.0, 0.0, 0.0, 1.7184658084887173E9, 0.0, 2024-06-15 10:36:48.488
70.0, 52081.46447914416, -100911.84537551945, -111318.01293111002, -187500.02235174447, 88287.9377350733, -187500.02235174447, -187500.02235174447, -187500.02235174447, 0.066, 0.898, -0.384, 192.0, 0.0, 0.0, 0.0, 0.0, 0.0, 0.0, 0.0, 0.0, 0.0, 1.718465808488727E9, 0.0, 2024-06-15 10:36:48.488
71.0, 50531.21453895742, -102718.11219669727, -112635.089473139, -187500.02235174447, 86719.11349524421, -187500.02235174447, -187500.02235174447, -187500.02235174447, 0.066, 0.898, -0.384, 192.0, 0.0, 0.0, 0.0, 0.0, 0.0, 0.0, 0.0, 0.0, 0.0, 1.718465808488737E9, 0.0, 2024-06-15 10:36:48.488
72.0, 47753.22797932959, -110761.67801161743, -117476.09734250276, -187500.02235174447, 82611.33225099233, -187500.02235174447, -187500.02235174447, -187500.02235174447, 0.066, 0.898, -0.384, 192.0, 0.0, 0.0, 0.0, 0.0, 0.0, 0.0, 0.0, 0.0, 0.0, 1.7184658084887471E9, 0.0, 2024-06-15 10:36:48.488
73.0, 49095.07025421504, -109782.1128108636, -116851.2766779991, -187500.02235174447, 83098.89085279594, -187500.02235174447, -187500.02235174447, -187500.02235174447, 0.066, 0.898, -0.384, 192.0, 0.0, 0.0, 0.0, 0.0, 0.0, 0.0, 0.0, 0.0, 0.0, 1.7184658084887836E9, 0.0, 2024-06-15 10:36:48.488
74.0, 51851.487380443505, -102020.96128713623, -112149.40841786962, -187500.02235174447, 86669.73849174244, -187500.02235174447, -187500.02235174447, -187500.02235174447, 0.066, 0.898, -0.384, 192.0, 0.0, 0.0, 0.0, 0.0, 0.0, 0.0, 0.0, 0.0, 0.0, 1.718465808488798E9, 0.0, 2024-06-15 10:36:48.488
75.0, 50985.89372466728, -101886.78376517103, -112299.05334699791, -187500.02235174447, 85997.97916388264, -187500.02235174447, -187500.02235174447, -187500.02235174447, 0.066, 0.898, -0.384, 192.0, 0.0, 0.0, 0.0, 0.0, 0.0, 0.0, 0.0, 0.0, 0.0, 1.7184658084888132E9, 0.0, 2024-06-15 10:36:48.488
76.0, 48055.87059925444, -109577.14731420843, -117187.46926635139, -187500.02235174447, 81600.6087184678, -187500.02235174447, -187500.02235174447, -187500.02235174447, 0.066, 0.898, -0.384, 192.0, 0.0, 0.0, 0.0, 0.0, 0.0, 0.0, 0.0, 0.0, 0.0, 1.718465808488829E9, 0.0, 2024-06-15 10:36:48.488
77.0, 48630.75746664494, -110324.56729704945, -117786.13838984232, -187500.02235174447, 80998.92210947539, -187500.02235174447, -187500.02235174447, -187500.02235174447, 0.066, 0.898, -0.384, 192.0, 0.0, 0.0, 0.0, 0.0, 0.0, 0.0, 0.0, 0.0, 0.0, 1.7184658084888415E9, 0.0, 2024-06-15 10:36:48.488
78.0, 51596.36456923063, -102036.47339778823, -113028.18960287448, -187500.02235174447, 84660.1378512547, -187500.02235174447, -187500.02235174447, -187500.02235174447, 0.066, 0.898, -0.384, 192.0, 0.0, 0.0, 0.0, 0.0, 0.0, 0.0, 0.0, 0.0, 0.0, 1.7184658084888515E9, 0.0, 2024-06-15 10:36:48.488
79.0, 51445.08796275711, -99469.21908488502, -111949.78498813928, -187500.02235174447, 85041.83859131797, -187500.02235174447, -187500.02235174447, -187500.02235174447, 0.066, 0.898, -0.384, 192.0, 0.0, 0.0, 0.0, 0.0, 0.0, 0.0, 0.0, 0.0, 0.0, 1.718465808488862E9, 0.0, 2024-06-15 10:36:48.488
80.0, 48545.820837714775, -105923.7546829885, -116484.79747590989, -187500.02235174447, 80860.20718338576, -187500.02235174447, -187500.02235174447, -187500.02235174447, 0.064, 0.904, -0.402, 192.0, 2.0, 0.0, 28.0, 64.0, 243.0, 112.0, 0.0, 0.0, 0.0, 1.7184658084888723E9, 0.0, 2024-06-15 10:36:48.488
81.0, 48306.32189587616, -108101.75336620252, -118308.99039614087, -187500.02235174447, 79231.86024807219, -187500.02235174447, -187500.02235174447, -187500.02235174447, 0.064, 0.904, -0.402, 192.0, 0.0, 0.0, 0.0, 0.0, 0.0, 0.0, 0.0, 0.0, 0.0, 1.718465808488887E9, 0.0, 2024-06-15 10:36:48.488
82.0, 51281.27202764416, -99641.10399974632, -113856.1205692435, -187500.02235174447, 82673.35834185581, -187500.02235174447, -187500.02235174447, -187500.02235174447, 0.064, 0.904, -0.402, 192.0, 0.0, 0.0, 0.0, 0.0, 0.0, 0.0, 0.0, 0.0, 0.0, 1.718465808488902E9, 0.0, 2024-06-15 10:36:48.488
83.0, 51840.89265357169, -94742.09335352104, -111595.59924550049, -187500.02235174447, 84072.42108254685, -187500.02235174447, -187500.02235174447, -187500.02235174447, 0.064, 0.904, -0.402, 192.0, 0.0, 0.0, 0.0, 0.0, 0.0, 0.0, 0.0, 0.0, 0.0, 1.7184658084889164E9, 0.0, 2024-06-15 10:36:48.488
84.0, 49182.3091128241, -99555.20624580458, -115456.19254782112, -187500.02235174447, 80387.95952653403, -187500.02235174447, -187500.02235174447, -187500.02235174447, 0.064, 0.904, -0.402, 192.0, 0.0, 0.0, 0.0, 0.0, 0.0, 0.0, 0.0, 0.0, 0.0, 1.7184658084889345E9, 0.0, 2024-06-15 10:36:48.488
85.0, 48145.97048115379, -103263.02537477319, -118415.07177532576, -187500.02235174447, 77786.43998938084, -187500.02235174447, -187500.02235174447, -187500.02235174447, 0.064, 0.904, -0.402, 192.0, 0.0, 0.0, 0.0, 0.0, 0.0, 0.0, 0.0, 0.0, 0.0, 1.7184658084889495E9, 0.0, 2024-06-15 10:36:48.488
86.0, 50887.34488336383, -95824.45422702482, -114667.44418948224, -187500.02235174447, 80675.06768406245, -187500.02235174447, -187500.02235174447, -187500.02235174447, 0.064, 0.904, -0.402, 192.0, 0.0, 0.0, 0.0, 0.0, 0.0, 0.0, 0.0, 0.0, 0.0, 1.718465808488964E9, 0.0, 2024-06-15 10:36:48.488
87.0, 52086.806546068976, -89462.1642782884, -111451.8551769084, -187500.02235174447, 82916.23239710717, -187500.02235174447, -187500.02235174447, -187500.02235174447, 0.064, 0.904, -0.402, 192.0, 0.0, 0.0, 0.0, 0.0, 0.0, 0.0, 0.0, 0.0, 0.0, 1.718465808488979E9, 0.0, 2024-06-15 10:36:48.488
88.0, 49777.066681035365, -92950.17635228352, -114509.55146664995, -187500.02235174447, 79860.57011611106, -187500.02235174447, -187500.02235174447, -187500.02235174447, 0.064, 0.904, -0.402, 192.0, 0.0, 0.0, 0.0, 0.0, 0.0, 0.0, 0.0, 0.0, 0.0, 1.7184658084889948E9, 0.0, 2024-06-15 10:36:48.488
89.0, 48127.10560883351, -98044.67535551493, -118267.08087528717, -187500.02235174447, 76567.59936423294, -187500.02235174447, -187500.02235174447, -187500.02235174447, 0.064, 0.904, -0.402, 192.0, 0.0, 0.0, 0.0, 0.0, 0.0, 0.0, 0.0, 0.0, 0.0, 1.718465808489011E9, 0.0, 2024-06-15 10:36:48.489
90.0, 50484.90172444603, -92238.20623614863, -115428.92341958564, -187500.02235174447, 78734.9809688307, -187500.02235174447, -187500.02235174447, -187500.02235174447, 0.044, 0.904, -0.41200000000000003, 192.0, 1.0, 96.0, 28.0, 64.0, 243.0, 32.0, 0.0, 0.0, 0.0, 1.7184658084890308E9, 0.0, 2024-06-15 10:36:48.489
91.0, 52262.826533654516, -84861.1247373968, -111412.60551364488, -187500.02235174447, 81698.03997254849, -187500.02235174447, -187500.02235174447, -187500.02235174447, 0.044, 0.904, -0.41200000000000003, 192.0, 0.0, 0.0, 0.0, 0.0, 0.0, 0.0, 0.0, 0.0, 0.0, 1.718465808489042E9, 0.0, 2024-06-15 10:36:48.489
92.0, 50406.29063919671, -86942.65329154173, -113492.14476253328, -187500.02235174447, 79448.51570707747, -187500.02235174447, -187500.02235174447, -187500.02235174447, 0.044, 0.904, -0.41200000000000003, 192.0, 0.0, 0.0, 0.0, 0.0, 0.0, 0.0, 0.0, 0.0, 0.0, 1.7184658084890528E9, 0.0, 2024-06-15 10:36:48.489
93.0, 48217.20549073285, -93176.80068931589, -117877.4229141978, -187500.02235174447, 75613.13517250243, -187500.02235174447, -187500.02235174447, -187500.02235174447, 0.044, 0.904, -0.41200000000000003, 192.0, 0.0, 0.0, 0.0, 0.0, 0.0, 0.0, 0.0, 0.0, 0.0, 1.7184658084890645E9, 0.0, 2024-06-15 10:36:48.489
94.0, 49986.48017483714, -89454.20705726232, -116187.74279209887, -187500.02235174447, 76905.46833341937, -187500.02235174447, -187500.02235174447, -187500.02235174447, 0.044, 0.904, -0.41200000000000003, 192.0, 0.0, 0.0, 0.0, 0.0, 0.0, 0.0, 0.0, 0.0, 0.0, 1.7184658084890747E9, 0.0, 2024-06-15 10:36:48.489
95.0, 52242.59820492246, -81341.44024150852, -111682.12284828698, -187500.02235174447, 80328.72740372746, -187500.02235174447, -187500.02235174447, -187500.02235174447, 0.044, 0.904, -0.41200000000000003, 192.0, 0.0, 0.0, 0.0, 0.0, 0.0, 0.0, 0.0, 0.0, 0.0, 1.7184658084890847E9, 0.0, 2024-06-15 10:36:48.489
96.0, 50888.127194419765, -81966.21620252327, -112624.29358056709, -187500.02235174447, 79089.54669112524, -187500.02235174447, -187500.02235174447, -187500.02235174447, 0.044, 0.904, -0.41200000000000003, 192.0, 0.0, 0.0, 0.0, 0.0, 0.0, 0.0, 0.0, 0.0, 0.0, 1.7184658084890947E9, 0.0, 2024-06-15 10:36:48.489
97.0, 47811.09664572438, -90540.16656162341, -117693.28924337498, -187500.02235174447, 74928.72475728093, -187500.02235174447, -187500.02235174447, -187500.02235174447, 0.044, 0.904, -0.41200000000000003, 192.0, 0.0, 0.0, 0.0, 0.0, 0.0, 0.0, 0.0, 0.0, 0.0, 1.7184658084891052E9, 0.0, 2024-06-15 10:36:48.489
98.0, 48979.73525282565, -89394.19262339981, -117572.88039599425, -187500.02235174447, 74995.10943831319, -187500.02235174447, -187500.02235174447, -187500.02235174447, 0.044, 0.904, -0.41200000000000003, 192.0, 0.0, 0.0, 0.0, 0.0, 0.0, 0.0, 0.0, 0.0, 0.0, 1.7184658084891157E9, 0.0, 2024-06-15 10:36:48.489
99.0, 52324.629107073444, -78525.58982677339, -112363.35931579582, -187500.02235174447, 78671.814939, -187500.02235174447, -187500.02235174447, -187500.02235174447, 0.044, 0.904, -0.41200000000000003, 192.0, 0.0, 0.0, 0.0, 0.0, 0.0, 0.0, 0.0, 0.0, 0.0, 1.7184658084891262E9, 0.0, 2024-06-15 10:36:48.489
100.0, 51624.99715387788, -76850.08071065912, -111830.42667274794, -187500.02235174447, 78601.38459222134, -187500.02235174447, -187500.02235174447, -187500.02235174447, 0.04, 0.892, -0.418, 192.0, 1.0, 64.0, 27.0, 224.0, 242.0, 240.0, 0.0, 0.0, 0.0, 1.7184658084891365E9, 0.0, 2024-06-15 10:36:48.489
101.0, 48121.87530063096, -86048.56116158499, -116936.03449297363, -187500.02235174447, 74467.25064125666, -187500.02235174447, -187500.02235174447, -187500.02235174447, 0.04, 0.892, -0.418, 192.0, 0.0, 0.0, 0.0, 0.0, 0.0, 0.0, 0.0, 0.0, 0.0, 1.7184658084891503E9, 0.0, 2024-06-15 10:36:48.489
102.0, 48278.58338100713, -87957.37778632376, -118256.44144492644, -187500.02235174447, 73519.0002344847, -187500.02235174447, -187500.02235174447, -187500.02235174447, 0.04, 0.892, -0.418, 192.0, 0.0, 0.0, 0.0, 0.0, 0.0, 0.0, 0.0, 0.0, 0.0, 1.7184658084891715E9, 0.0, 2024-06-15 10:36:48.489
103.0, 51582.059452779235, -78208.23975899693, -113390.22080781708, -187500.02235174447, 77140.34046415573, -187500.02235174447, -187500.02235174447, -187500.02235174447, 0.04, 0.892, -0.418, 192.0, 0.0, 0.0, 0.0, 0.0, 0.0, 0.0, 0.0, 0.0, 0.0, 1.718465808489186E9, 0.0, 2024-06-15 10:36:48.489
104.0, 51707.76566359588, -74571.02979076264, -111778.74943956727, -187500.02235174447, 77981.36955277558, -187500.02235174447, -187500.02235174447, -187500.02235174447, 0.04, 0.892, -0.418, 192.0, 0.0, 0.0, 0.0, 0.0, 0.0, 0.0, 0.0, 0.0, 0.0, 1.7184658084891973E9, 0.0, 2024-06-15 10:36:48.489
105.0, 48867.395385193275, -81006.34288863455, -116170.44254189046, -187500.02235174447, 74045.36146466272, -187500.02235174447, -187500.02235174447, -187500.02235174447, 0.04, 0.892, -0.418, 192.0, 0.0, 0.0, 0.0, 0.0, 0.0, 0.0, 0.0, 0.0, 0.0, 1.718465808489208E9, 0.0, 2024-06-15 10:36:48.489
106.0, 48467.36621467665, -83798.76867518052, -118250.8088053237, -187500.02235174447, 72310.0167286416, -187500.02235174447, -187500.02235174447, -187500.02235174447, 0.04, 0.892, -0.418, 192.0, 0.0, 0.0, 0.0, 0.0, 0.0, 0.0, 0.0, 0.0, 0.0, 1.7184658084892187E9, 0.0, 2024-06-15 10:36:48.489
107.0, 51103.15097607982, -76625.088050972, -114010.61582691858, -187500.02235174447, 75795.5924624911, -187500.02235174447, -187500.02235174447, -187500.02235174447, 0.04, 0.892, -0.418, 192.0, 0.0, 0.0, 0.0, 0.0, 0.0, 0.0, 0.0, 0.0, 0.0, 1.7184658084892292E9, 0.0, 2024-06-15 10:36:48.489
108.0, 51591.558944172735, -72672.71848591787, -111700.40657525141, -187500.02235174447, 77469.31343904894, -187500.02235174447, -187500.02235174447, -187500.02235174447, 0.04, 0.892, -0.418, 192.0, 0.0, 0.0, 0.0, 0.0, 0.0, 0.0, 0.0, 0.0, 0.0, 1.718465808489244E9, 0.0, 2024-06-15 10:36:48.489
109.0, 49118.450178915286, -77733.60046548849, -115566.16313054123, -187500.02235174447, 73845.33570353218, -187500.02235174447, -187500.02235174447, -187500.02235174447, 0.04, 0.892, -0.418, 192.0, 0.0, 0.0, 0.0, 0.0, 0.0, 0.0, 0.0, 0.0, 0.0, 1.7184658084892676E9, 0.0, 2024-06-15 10:36:48.489
110.0, 48107.52548069066, -81865.02985537409, -118673.10031331782, -187500.02235174447, 71148.1954035992, -187500.02235174447, -187500.02235174447, -187500.02235174447, 0.04, 0.892, -0.418, 192.0, 0.0, 0.0, 0.0, 0.0, 0.0, 0.0, 0.0, 0.0, 0.0, 1.7184658084892828E9, 0.0, 2024-06-15 10:36:48.489
111.0, 50548.514789165834, -75785.95886063085, -115088.28283408677, -187500.02235174447, 74122.0950033778, -187500.02235174447, -187500.02235174447, -187500.02235174447, 0.048, 0.89, -0.418, 192.0, 1.0, 128.0, 27.0, 208.0, 242.0, 240.0, 0.0, 0.0, 0.0, 1.7184658084892988E9, 0.0, 2024-06-15 10:36:48.489
112.0, 51642.92325293103, -70518.25618961528, -111816.61329467456, -187500.02235174447, 76656.98399030972, -187500.02235174447, -187500.02235174447, -187500.02235174447, 0.048, 0.89, -0.418, 192.0, 0.0, 0.0, 0.0, 0.0, 0.0, 0.0, 0.0, 0.0, 0.0, 1.718465808489318E9, 0.0, 2024-06-15 10:36:48.489
113.0, 49484.95173274896, -74272.276374373, -114808.41664176187, -187500.02235174447, 73733.1075946221, -187500.02235174447, -187500.02235174447, -187500.02235174447, 0.048, 0.89, -0.418, 192.0, 0.0, 0.0, 0.0, 0.0, 0.0, 0.0, 0.0, 0.0, 0.0, 1.718465808489336E9, 0.0, 2024-06-15 10:36:48.489
114.0, 47864.47261148365, -79709.80759976001, -118799.56648344595, -187500.02235174447, 70215.7700319016, -187500.02235174447, -187500.02235174447, -187500.02235174447, 0.048, 0.89, -0.418, 192.0, 0.0, 0.0, 0.0, 0.0, 0.0, 0.0, 0.0, 0.0, 0.0, 1.7184658084893465E9, 0.0, 2024-06-15 10:36:48.489
115.0, 49976.13131715433, -75066.70207580354, -116144.17924215547, -187500.02235174447, 72414.22056129224, -187500.02235174447, -187500.02235174447, -187500.02235174447, 0.048, 0.89, -0.418, 192.0, 0.0, 0.0, 0.0, 0.0, 0.0, 0.0, 0.0, 0.0, 0.0, 1.7184658084893568E9, 0.0, 2024-06-15 10:36:48.489
116.0, 51588.340292971174, -68773.30020347837, -112127.23548736997, -187500.02235174447, 75625.4062802084, -187500.02235174447, -187500.02235174447, -187500.02235174447, 0.048, 0.89, -0.418, 192.0, 0.0, 0.0, 0.0, 0.0, 0.0, 0.0, 0.0, 0.0, 0.0, 1.7184658084893737E9, 0.0, 2024-06-15 10:36:48.489
117.0, 49866.563065834416, -71145.11086286437, -114147.22968902942, -187500.02235174447, 73514.41812687137, -187500.02235174447, -187500.02235174447, -187500.02235174447, 0.048, 0.89, -0.418, 192.0, 0.0, 0.0, 0.0, 0.0, 0.0, 0.0, 0.0, 0.0, 0.0, 1.7184658084893842E9, 0.0, 2024-06-15 10:36:48.489
118.0, 47791.69533153717, -77392.60225207833, -118709.48895329106, -187500.02235174447, 69432.96723758784, -187500.02235174447, -187500.02235174447, -187500.02235174447, 0.048, 0.89, -0.418, 192.0, 0.0, 0.0, 0.0, 0.0, 0.0, 0.0, 0.0, 0.0, 0.0, 1.7184658084893944E9, 0.0, 2024-06-15 10:36:48.489
119.0, 49392.52726942626, -74459.1816615083, -117206.42354564948, -187500.02235174447, 70634.1723363605, -187500.02235174447, -187500.02235174447, -187500.02235174447, 0.048, 0.89, -0.418, 192.0, 0.0, 0.0, 0.0, 0.0, 0.0, 0.0, 0.0, 0.0, 0.0, 1.718465808489405E9, 0.0, 2024-06-15 10:36:48.489
120.0, 51463.81872461065, -67376.89732037751, -112624.584153245, -187500.02235174447, 74365.55020398501, -187500.02235174447, -187500.02235174447, -187500.02235174447, 0.048, 0.89, -0.418, 192.0, 0.0, 0.0, 0.0, 0.0, 0.0, 0.0, 0.0, 0.0, 0.0, 1.718465808489415E9, 0.0, 2024-06-15 10:36:48.489
121.0, 50220.927622428855, -68235.29371443912, -113572.38752512784, -187500.02235174447, 73163.54044241196, -187500.02235174447, -187500.02235174447, -187500.02235174447, 0.054, 0.9, -0.422, 192.0, 1.0, 176.0, 28.0, 32.0, 242.0, 208.0, 0.0, 0.0, 0.0, 1.7184658084894252E9, 0.0, 2024-06-15 10:36:48.489
122.0, 47815.79051205999, -74900.29333833377, -118477.81312201181, -187500.02235174447, 68708.5695515358, -187500.02235174447, -187500.02235174447, -187500.02235174447, 0.054, 0.9, -0.422, 192.0, 0.0, 0.0, 0.0, 0.0, 0.0, 0.0, 0.0, 0.0, 0.0, 1.7184658089679775E9, 0.0, 2024-06-15 10:36:48.967
123.0, 48828.257480652035, -73812.21041824942, -118193.4989325403, -187500.02235174447, 68867.08812321283, -187500.02235174447, -187500.02235174447, -187500.02235174447, 0.054, 0.9, -0.422, 192.0, 0.0, 0.0, 0.0, 0.0, 0.0, 0.0, 0.0, 0.0, 0.0, 1.7184658089681323E9, 0.0, 2024-06-15 10:36:48.968
124.0, 51226.26438453965, -66299.78910682072, -113321.1986209391, -187500.02235174447, 72880.18737795202, -187500.02235174447, -187500.02235174447, -187500.02235174447, 0.054, 0.9, -0.422, 192.0, 0.0, 0.0, 0.0, 0.0, 0.0, 0.0, 0.0, 0.0, 0.0, 1.7184658089681623E9, 0.0, 2024-06-15 10:36:48.968
125.0, 50551.800495600764, -65509.029091480865, -113036.7279692564, -187500.02235174447, 72761.79018757227, -187500.02235174447, -187500.02235174447, -187500.02235174447, 0.054, 0.9, -0.422, 192.0, 0.0, 0.0, 0.0, 0.0, 0.0, 0.0, 0.0, 0.0, 0.0, 1.7184658089681723E9, 0.0, 2024-06-15 10:36:48.968
126.0, 47968.385871456376, -72085.62756605477, -117888.75524863665, -187500.02235174447, 68297.27510181369, -187500.02235174447, -187500.02235174447, -187500.02235174447, 0.054, 0.9, -0.422, 192.0, 0.0, 0.0, 0.0, 0.0, 0.0, 0.0, 0.0, 0.0, 0.0, 1.7184658089681816E9, 0.0, 2024-06-15 10:36:48.968
127.0, 48284.84186945461, -73008.10641146975, -118920.46706920471, -187500.02235174447, 67320.95090400588, -187500.02235174447, -187500.02235174447, -187500.02235174447, 0.054, 0.9, -0.422, 192.0, 0.0, 0.0, 0.0, 0.0, 0.0, 0.0, 0.0, 0.0, 0.0, 1.7184658089681911E9, 0.0, 2024-06-15 10:36:48.968
128.0, 50883.47803157307, -65536.32057146079, -114090.7244790464, -187500.02235174447, 71335.79359481258, -187500.02235174447, -187500.02235174447, -187500.02235174447, 0.054, 0.9, -0.422, 192.0, 0.0, 0.0, 0.0, 0.0, 0.0, 0.0, 0.0, 0.0, 0.0, 1.7184658089682004E9, 0.0, 2024-06-15 10:36:48.968
129.0, 50810.58899290431, -63154.429275325456, -112629.07685388051, -187500.02235174447, 72263.4580449412, -187500.02235174447, -187500.02235174447, -187500.02235174447, 0.054, 0.9, -0.422, 192.0, 0.0, 0.0, 0.0, 0.0, 0.0, 0.0, 0.0, 0.0, 0.0, 1.7184658089682093E9, 0.0, 2024-06-15 10:36:48.968
130.0, 48205.49317663827, -69260.9929157487, -117181.27783313727, -187500.02235174447, 67999.41575520227, -187500.02235174447, -187500.02235174447, -187500.02235174447, 0.054, 0.9, -0.422, 192.0, 0.0, 0.0, 0.0, 0.0, 0.0, 0.0, 0.0, 0.0, 0.0, 1.7184658089682183E9, 0.0, 2024-06-15 10:36:48.968
131.0, 47794.80222401646, -72131.69451137717, -119506.68627103405, -187500.02235174447, 65893.68026181225, -187500.02235174447, -187500.02235174447, -187500.02235174447, 0.048, 0.898, -0.418, 192.0, 1.0, 128.0, 28.0, 16.0, 242.0, 240.0, 0.0, 0.0, 0.0, 1.7184658089682276E9, 0.0, 2024-06-15 10:36:48.968
132.0, 50400.9485722719, -65253.369838401064, -115135.93675326547, -187500.02235174447, 69533.17010798099, -187500.02235174447, -187500.02235174447, -187500.02235174447, 0.048, 0.898, -0.418, 192.0, 0.0, 0.0, 0.0, 0.0, 0.0, 0.0, 0.0, 0.0, 0.0, 1.7184658089682364E9, 0.0, 2024-06-15 10:36:48.968
133.0, 50968.9287506257, -61317.22763982149, -112525.29770437452, -187500.02235174447, 71501.35296599305, -187500.02235174447, -187500.02235174447, -187500.02235174447, 0.048, 0.898, -0.418, 192.0, 0.0, 0.0, 0.0, 0.0, 0.0, 0.0, 0.0, 0.0, 0.0, 1.7184658089682453E9, 0.0, 2024-06-15 10:36:48.968
134.0, 48513.813139654776, -66511.88480995713, -116445.59251613528, -187500.02235174447, 67758.55335695187, -187500.02235174447, -187500.02235174447, -187500.02235174447, 0.048, 0.898, -0.418, 192.0, 0.0, 0.0, 0.0, 0.0, 0.0, 0.0, 0.0, 0.0, 0.0, 1.718465808968254E9, 0.0, 2024-06-15 10:36:48.968
135.0, 47412.92266999753, -71070.88071952829, -119885.3471738514, -187500.02235174447, 64678.438267521655, -187500.02235174447, -187500.02235174447, -187500.02235174447, 0.048, 0.898, -0.418, 192.0, 0.0, 0.0, 0.0, 0.0, 0.0, 0.0, 0.0, 0.0, 0.0, 1.718465808968263E9, 0.0, 2024-06-15 10:36:48.968
136.0, 49848.88283597027, -65200.95499765337, -116226.70188268446, -187500.02235174447, 67732.69238861708, -187500.02235174447, -187500.02235174447, -187500.02235174447, 0.048, 0.898, -0.418, 192.0, 0.0, 0.0, 0.0, 0.0, 0.0, 0.0, 0.0, 0.0, 0.0, 1.718465808968273E9, 0.0, 2024-06-15 10:36:48.968
137.0, 51012.38054184682, -59902.83160243412, -112633.61425800495, -187500.02235174447, 70594.00625157432, -187500.02235174447, -187500.02235174447, -187500.02235174447, 0.048, 0.898, -0.418, 192.0, 0.0, 0.0, 0.0, 0.0, 0.0, 0.0, 0.0, 0.0, 0.0, 1.7184658089682827E9, 0.0, 2024-06-15 10:36:48.968
138.0, 48851.86092279684, -63859.939737312765, -115685.2085215102, -187500.02235174447, 67589.12713398066, -187500.02235174447, -187500.02235174447, -187500.02235174447, 0.048, 0.898, -0.418, 192.0, 0.0, 0.0, 0.0, 0.0, 0.0, 0.0, 0.0, 0.0, 0.0, 1.718465808968292E9, 0.0, 2024-06-15 10:36:48.968
139.0, 47126.887396202976, -69791.06453550632, -120069.6373068854, -187500.02235174447, 63654.66131623523, -187500.02235174447, -187500.02235174447, -187500.02235174447, 0.048, 0.898, -0.418, 192.0, 0.0, 0.0, 0.0, 0.0, 0.0, 0.0, 0.0, 0.0, 0.0, 1.7184658089683008E9, 0.0, 2024-06-15 10:36:48.968
140.0, 49206.27018288019, -65402.23245647341, -117457.1207114602, -187500.02235174447, 65827.9884848581, -187500.02235174447, -187500.02235174447, -187500.02235174447, 0.048, 0.898, -0.418, 192.0, 0.0, 0.0, 0.0, 0.0, 0.0, 0.0, 0.0, 0.0, 0.0, 1.7184658089683096E9, 0.0, 2024-06-15 10:36:48.968
141.0, 50923.82293031489, -58988.48879200087, -113111.02516782585, -187500.02235174447, 69378.04900146116, -187500.02235174447, -187500.02235174447, -187500.02235174447, 0.054, 0.888, -0.41400000000000003, 192.0, 1.0, 176.0, 27.0, 192.0, 243.0, 16.0, 0.0, 0.0, 0.0, 1.7184658089683187E9, 0.0, 2024-06-15 10:36:48.968
142.0, 49211.58989806055, -61445.68311520614, -115083.27604332878, -187500.02235174447, 67307.11517418805, -187500.02235174447, -187500.02235174447, -187500.02235174447, 0.054, 0.888, -0.41400000000000003, 192.0, 0.0, 0.0, 0.0, 0.0, 0.0, 0.0, 0.0, 0.0, 0.0, 1.7184658089683273E9, 0.0, 2024-06-15 10:36:48.968
143.0, 47034.88761602493, -68191.86427496246, -120004.21375086473, -187500.02235174447, 62878.631100491424, -187500.02235174447, -187500.02235174447, -187500.02235174447, 0.054, 0.888, -0.41400000000000003, 192.0, 0.0, 0.0, 0.0, 0.0, 0.0, 0.0, 0.0, 0.0, 0.0, 1.7184658089683363E9, 0.0, 2024-06-15 10:36:48.968
144.0, 48606.10349251074, -65606.59445602828, -118606.6485770522, -187500.02235174447, 64020.5593729686, -187500.02235174447, -187500.02235174447, -187500.02235174447, 0.054, 0.888, -0.41400000000000003, 192.0, 0.0, 0.0, 0.0, 0.0, 0.0, 0.0, 0.0, 0.0, 0.0, 1.7184658089683497E9, 0.0, 2024-06-15 10:36:48.968
145.0, 50779.207143689055, -58414.20542171066, -113743.31131497757, -187500.02235174447, 68051.60707850542, -187500.02235174447, -187500.02235174447, -187500.02235174447, 0.054, 0.888, -0.41400000000000003, 192.0, 0.0, 0.0, 0.0, 0.0, 0.0, 0.0, 0.0, 0.0, 0.0, 1.7184658089683588E9, 0.0, 2024-06-15 10:36:48.968
146.0, 49595.59286780273, -59256.59796674228, -114532.77492913902, -187500.02235174447, 67013.68147297877, -187500.02235174447, -187500.02235174447, -187500.02235174447, 0.054, 0.888, -0.41400000000000003, 192.0, 0.0, 0.0, 0.0, 0.0, 0.0, 0.0, 0.0, 0.0, 0.0, 1.7184658089683676E9, 0.0, 2024-06-15 10:36:48.968
147.0, 47105.60853548152, -66334.88134561555, -119680.98517429653, -187500.02235174447, 62339.2611550404, -187500.02235174447, -187500.02235174447, -187500.02235174447, 0.054, 0.888, -0.41400000000000003, 192.0, 0.0, 0.0, 0.0, 0.0, 0.0, 0.0, 0.0, 0.0, 0.0, 1.7184658089683764E9, 0.0, 2024-06-15 10:36:48.968
148.0, 48035.776380989126, -65747.81277749692, -119638.44980459807, -187500.02235174447, 62317.84818385222, -187500.02235174447, -187500.02235174447, -187500.02235174447, 0.054, 0.888, -0.41400000000000003, 192.0, 0.0, 0.0, 0.0, 0.0, 0.0, 0.0, 0.0, 0.0, 0.0, 1.7184658089683852E9, 0.0, 2024-06-15 10:36:48.968
149.0, 50551.75579211185, -58180.07089854132, -114581.92641519624, -187500.02235174447, 66541.16559519358, -187500.02235174447, -187500.02235174447, -187500.02235174447, 0.054, 0.888, -0.41400000000000003, 192.0, 0.0, 0.0, 0.0, 0.0, 0.0, 0.0, 0.0, 0.0, 0.0, 1.7184658089683943E9, 0.0, 2024-06-15 10:36:48.968
150.0, 49990.503488839095, -57256.65327985922, -114059.7226094869, -187500.02235174447, 66669.35284964477, -187500.02235174447, -187500.02235174447, -187500.02235174447, 0.054, 0.888, -0.41400000000000003, 192.0, 0.0, 0.0, 0.0, 0.0, 0.0, 0.0, 0.0, 0.0, 0.0, 1.718465808968403E9, 0.0, 2024-06-15 10:36:48.968
151.0, 47353.01999485731, -64131.22285976683, -119065.93222211984, -187500.02235174447, 62075.91290186798, -187500.02235174447, -187500.02235174447, -187500.02235174447, 0.054, 0.888, -0.41400000000000003, 192.0, 0.0, 0.0, 0.0, 0.0, 0.0, 0.0, 0.0, 0.0, 0.0, 1.7184658089684124E9, 0.0, 2024-06-15 10:36:48.968
152.0, 47575.062224276335, -65547.36233322172, -120351.49280446683, -187500.02235174447, 60911.0740913241, -187500.02235174447, -187500.02235174447, -187500.02235174447, 0.062, 0.88, -0.418, 192.0, 1.0, 240.0, 27.0, 128.0, 242.0, 240.0, 0.0, 0.0, 0.0, 1.7184658089684212E9, 0.0, 2024-06-15 10:36:48.968
153.0, 50231.76821848968, -58098.68819697955, -115445.44135873811, -187500.02235174447, 65031.59582991551, -187500.02235174447, -187500.02235174447, -187500.02235174447, 0.062, 0.88, -0.418, 192.0, 0.0, 0.0, 0.0, 0.0, 0.0, 0.0, 0.0, 0.0, 0.0, 1.71846580896843E9, 0.0, 2024-06-15 10:36:48.968
154.0, 50282.55138189213, -55497.7498051822, -113733.18597473932, -187500.02235174447, 66220.19454481537, -187500.02235174447, -187500.02235174447, -187500.02235174447, 0.062, 0.88, -0.418, 192.0, 0.0, 0.0, 0.0, 0.0, 0.0, 0.0, 0.0, 0.0, 0.0, 1.7184658089684389E9, 0.0, 2024-06-15 10:36:48.968
155.0, 47679.44487088262, -61678.834161619445, -118317.99814915635, -187500.02235174447, 61959.54972023365, -187500.02235174447, -187500.02235174447, -187500.02235174447, 0.062, 0.88, -0.418, 192.0, 0.0, 0.0, 0.0, 0.0, 0.0, 0.0, 0.0, 0.0, 0.0, 1.7184658089684477E9, 0.0, 2024-06-15 10:36:48.968
156.0, 47161.59965534206, -64934.388093279376, -120917.90836070877, -187500.02235174447, 59650.636869744885, -187500.02235174447, -187500.02235174447, -187500.02235174447, 0.062, 0.88, -0.418, 192.0, 0.0, 0.0, 0.0, 0.0, 0.0, 0.0, 0.0, 0.0, 0.0, 1.7184658089684565E9, 0.0, 2024-06-15 10:36:48.968
157.0, 49803.352332514805, -57923.249354749845, -116488.26199630047, -187500.02235174447, 63385.188685082045, -187500.02235174447, -187500.02235174447, -187500.02235174447, 0.062, 0.88, -0.418, 192.0, 0.0, 0.0, 0.0, 0.0, 0.0, 0.0, 0.0, 0.0, 0.0, 1.718465808968465E9, 0.0, 2024-06-15 10:36:48.968
158.0, 50484.92407619049, -53489.22204842831, -113615.77226111559, -187500.02235174447, 65616.7868514999, -187500.02235174447, -187500.02235174447, -187500.02235174447, 0.062, 0.88, -0.418, 192.0, 0.0, 0.0, 0.0, 0.0, 0.0, 0.0, 0.0, 0.0, 0.0, 1.718465808968474E9, 0.0, 2024-06-15 10:36:48.968
159.0, 48095.880221829444, -58305.35242621332, -117441.60860080822, -187500.02235174447, 61988.45052581436, -187500.02235174447, -187500.02235174447, -187500.02235174447, 0.062, 0.88, -0.418, 192.0, 0.0, 0.0, 0.0, 0.0, 0.0, 0.0, 0.0, 0.0, 0.0, 1.718465808968483E9, 0.0, 2024-06-15 10:36:48.968
160.0, 46918.50208264615, -62833.14530052487, -121080.8302260435, -187500.02235174447, 58768.502923071734, -187500.02235174447, -187500.02235174447, -187500.02235174447, 0.062, 0.88, -0.418, 192.0, 0.0, 0.0, 0.0, 0.0, 0.0, 0.0, 0.0, 0.0, 0.0, 1.7184658089684918E9, 0.0, 2024-06-15 10:36:48.968
161.0, 49334.63625128702, -56634.894804345946, -117465.2790981864, -187500.02235174447, 61816.073872575034, -187500.02235174447, -187500.02235174447, -187500.02235174447, 0.062, 0.88, -0.418, 192.0, 0.0, 0.0, 0.0, 0.0, 0.0, 0.0, 0.0, 0.0, 0.0, 1.7184658089685006E9, 0.0, 2024-06-15 10:36:48.968
162.0, 50637.76530477587, -50561.948187583475, -113588.8160573025, -187500.02235174447, 64946.03335214059, -187500.02235174447, -187500.02235174447, -187500.02235174447, 0.058, 0.884, -0.41400000000000003, 192.0, 1.0, 208.0, 27.0, 160.0, 243.0, 16.0, 0.0, 0.0, 0.0, 1.7184658089685094E9, 0.0, 2024-06-15 10:36:48.968
163.0, 48589.652608591634, -53830.51083451639, -116461.26108899845, -187500.02235174447, 62117.82242272168, -187500.02235174447, -187500.02235174447, -187500.02235174447, 0.058, 0.884, -0.41400000000000003, 192.0, 0.0, 0.0, 0.0, 0.0, 0.0, 0.0, 0.0, 0.0, 0.0, 1.7184658089685183E9, 0.0, 2024-06-15 10:36:48.968
164.0, 46822.54604369951, -59431.14273919377, -120974.21240499169, -187500.02235174447, 58103.896153437636, -187500.02235174447, -187500.02235174447, -187500.02235174447, 0.058, 0.884, -0.41400000000000003, 192.0, 0.0, 0.0, 0.0, 0.0, 0.0, 0.0, 0.0, 0.0, 0.0, 1.7184658089685273E9, 0.0, 2024-06-15 10:36:48.968
165.0, 48861.047489767974, -54588.48084074031, -118420.72676667295, -187500.02235174447, 60247.808426357326, -187500.02235174447, -187500.02235174447, -187500.02235174447, 0.058, 0.884, -0.41400000000000003, 192.0, 0.0, 0.0, 0.0, 0.0, 0.0, 0.0, 0.0, 0.0, 0.0, 1.7184658089685361E9, 0.0, 2024-06-15 10:36:48.968
166.0, 50698.49499446094, -47225.726810184344, -113772.52504498066, -187500.02235174447, 64059.33964959856, -187500.02235174447, -187500.02235174447, -187500.02235174447, 0.058, 0.884, -0.41400000000000003, 192.0, 0.0, 0.0, 0.0, 0.0, 0.0, 0.0, 0.0, 0.0, 0.0, 1.7184658089685452E9, 0.0, 2024-06-15 10:36:48.968
167.0, 49128.307298220076, -48732.72612485005, -115444.45788198209, -187500.02235174447, 62262.52761632534, -187500.02235174447, -187500.02235174447, -187500.02235174447, 0.058, 0.884, -0.41400000000000003, 192.0, 0.0, 0.0, 0.0, 0.0, 0.0, 0.0, 0.0, 0.0, 0.0, 1.718465808968554E9, 0.0, 2024-06-15 10:36:48.968
168.0, 46927.19691123926, -54986.6771682116, -120458.22238424091, -187500.02235174447, 57766.98830926279, -187500.02235174447, -187500.02235174447, -187500.02235174447, 0.058, 0.884, -0.41400000000000003, 192.0, 0.0, 0.0, 0.0, 0.0, 0.0, 0.0, 0.0, 0.0, 0.0, 1.7184658089685628E9, 0.0, 2024-06-15 10:36:48.968
169.0, 48377.847478133146, -52111.23700275863, -119283.79467532573, -187500.02235174447, 58713.76350090069, -187500.02235174447, -187500.02235174447, -187500.02235174447, 0.058, 0.884, -0.41400000000000003, 192.0, 0.0, 0.0, 0.0, 0.0, 0.0, 0.0, 0.0, 0.0, 0.0, 1.718465808968572E9, 0.0, 2024-06-15 10:36:48.968
170.0, 50635.21720590797, -44120.48835998635, -114226.17605044557, -187500.02235174447, 62889.40464131888, -187500.02235174447, -187500.02235174447, -187500.02235174447, 0.058, 0.884, -0.41400000000000003, 192.0, 0.0, 0.0, 0.0, 0.0, 0.0, 0.0, 0.0, 0.0, 0.0, 1.718465808968581E9, 0.0, 2024-06-15 10:36:48.968
171.0, 49612.37902788866, -43889.41602580739, -114657.45295971072, -187500.02235174447, 62172.74065884837, -187500.02235174447, -187500.02235174447, -187500.02235174447, 0.058, 0.884, -0.41400000000000003, 192.0, 0.0, 0.0, 0.0, 0.0, 0.0, 0.0, 0.0, 0.0, 0.0, 1.71846580896859E9, 0.0, 2024-06-15 10:36:48.968
172.0, 47144.56762606712, -50171.55261892708, -119801.81870482191, -187500.02235174447, 57525.76828310112, -187500.02235174447, -187500.02235174447, -187500.02235174447, 0.066, 0.888, -0.40800000000000003, 192.0, 2.0, 16.0, 27.0, 192.0, 243.0, 64.0, 0.0, 0.0, 0.0, 1.7184658089685988E9, 0.0, 2024-06-15 10:36:48.968
173.0, 47976.007816315636, -49044.46590476822, -119922.94280802523, -187500.02235174447, 57373.329385915924, -187500.02235174447, -187500.02235174447, -187500.02235174447, 0.066, 0.888, -0.40800000000000003, 192.0, 0.0, 0.0, 0.0, 0.0, 0.0, 0.0, 0.0, 0.0, 0.0, 1.7184658089686084E9, 0.0, 2024-06-15 10:36:48.968
174.0, 50511.7238177924, -40625.12256206543, -114716.61802728391, -187500.02235174447, 61702.23643806415, -187500.02235174447, -187500.02235174447, -187500.02235174447, 0.066, 0.888, -0.40800000000000003, 192.0, 0.0, 0.0, 0.0, 0.0, 0.0, 0.0, 0.0, 0.0, 0.0, 1.7184658089686172E9, 0.0, 2024-06-15 10:36:48.968
175.0, 50092.40509181084, -38607.3635348515, -113845.5705458606, -187500.02235174447, 62138.81071076521, -187500.02235174447, -187500.02235174447, -187500.02235174447, 0.066, 0.888, -0.40800000000000003, 192.0, 0.0, 0.0, 0.0, 0.0, 0.0, 0.0, 0.0, 0.0, 0.0, 1.718465808968626E9, 0.0, 2024-06-15 10:36:48.968
176.0, 47542.85336051624, -44504.53603321744, -118723.61525578682, -187500.02235174447, 57689.830087403076, -187500.02235174447, -187500.02235174447, -187500.02235174447, 0.066, 0.888, -0.40800000000000003, 192.0, 0.0, 0.0, 0.0, 0.0, 0.0, 0.0, 0.0, 0.0, 0.0, 1.718465808968635E9, 0.0, 2024-06-15 10:36:48.968
177.0, 47651.19226589111, -45353.8576190302, -120212.0179190657, -187500.02235174447, 56361.3541557019, -187500.02235174447, -187500.02235174447, -187500.02235174447, 0.066, 0.888, -0.40800000000000003, 192.0, 0.0, 0.0, 0.0, 0.0, 0.0, 0.0, 0.0, 0.0, 0.0, 1.7184658089686441E9, 0.0, 2024-06-15 10:36:48.968
178.0, 50294.97895180929, -37117.15038027172, -115239.69355102701, -187500.02235174447, 60509.39089171778, -187500.02235174447, -187500.02235174447, -187500.02235174447, 0.066, 0.888, -0.40800000000000003, 192.0, 0.0, 0.0, 0.0, 0.0, 0.0, 0.0, 0.0, 0.0, 0.0, 1.718465808968653E9, 0.0, 2024-06-15 10:36:48.968
179.0, 50523.79375979826, -33356.96111404432, -113050.47429209642, -187500.02235174447, 62115.207268620405, -187500.02235174447, -187500.02235174447, -187500.02235174447, 0.066, 0.888, -0.40800000000000003, 192.0, 0.0, 0.0, 0.0, 0.0, 0.0, 0.0, 0.0, 0.0, 0.0, 1.718465808968662E9, 0.0, 2024-06-15 10:36:48.968
180.0, 48016.889156924386, -38503.18205394531, -117421.715548243, -187500.02235174447, 58056.24223425892, -187500.02235174447, -187500.02235174447, -187500.02235174447, 0.066, 0.888, -0.40800000000000003, 192.0, 0.0, 0.0, 0.0, 0.0, 0.0, 0.0, 0.0, 0.0, 0.0, 1.718465808968671E9, 0.0, 2024-06-15 10:36:48.968
181.0, 47406.35125712767, -41198.64597304416, -120193.30950895662, -187500.02235174447, 55606.37928323499, -187500.02235174447, -187500.02235174447, -187500.02235174447, 0.066, 0.888, -0.40800000000000003, 192.0, 0.0, 0.0, 0.0, 0.0, 0.0, 0.0, 0.0, 0.0, 0.0, 1.71846580896868E9, 0.0, 2024-06-15 10:36:48.968
182.0, 49958.898122179286, -33782.650087195645, -115875.8018464806, -187500.02235174447, 59200.65155037065, -187500.02235174447, -187500.02235174447, -187500.02235174447, 0.068, 0.888, -0.41200000000000003, 192.0, 2.0, 32.0, 27.0, 192.0, 243.0, 32.0, 0.0, 0.0, 0.0, 1.7184658089686887E9, 0.0, 2024-06-15 10:36:48.968
183.0, 50769.148858684166, -28653.461176569603, -112682.98926150672, -187500.02235174447, 61680.376431986864, -187500.02235174447, -187500.02235174447, -187500.02235174447, 0.068, 0.888, -0.41200000000000003, 192.0, 0.0, 0.0, 0.0, 0.0, 0.0, 0.0, 0.0, 0.0, 0.0, 1.7184658089686975E9, 0.0, 2024-06-15 10:36:48.968
184.0, 48499.84329937021, -32776.463958795546, -116278.04383969831, -187500.02235174447, 58244.64508827271, -187500.02235174447, -187500.02235174447, -187500.02235174447, 0.068, 0.888, -0.41200000000000003, 192.0, 0.0, 0.0, 0.0, 0.0, 0.0, 0.0, 0.0, 0.0, 0.0, 1.7184658089687066E9, 0.0, 2024-06-15 10:36:48.968
185.0, 47232.20881607638, -37141.4690782391, -120138.59243853003, -187500.02235174447, 54801.42591016602, -187500.02235174447, -187500.02235174447, -187500.02235174447, 0.068, 0.888, -0.41200000000000003, 192.0, 0.0, 0.0, 0.0, 0.0, 0.0, 0.0, 0.0, 0.0, 0.0, 1.7184658089687157E9, 0.0, 2024-06-15 10:36:48.968
186.0, 49519.12755002112, -31089.421342542333, -116722.24005725862, -187500.02235174447, 57623.42305462636, -187500.02235174447, -187500.02235174447, -187500.02235174447, 0.068, 0.888, -0.41200000000000003, 192.0, 0.0, 0.0, 0.0, 0.0, 0.0, 0.0, 0.0, 0.0, 0.0, 1.7184658089687245E9, 0.0, 2024-06-15 10:36:48.968
187.0, 50875.766679735985, -24878.653869468435, -112634.08364463851, -187500.02235174447, 60887.828277090586, -187500.02235174447, -187500.02235174447, -187500.02235174447, 0.068, 0.888, -0.41200000000000003, 192.0, 0.0, 0.0, 0.0, 0.0, 0.0, 0.0, 0.0, 0.0, 0.0, 1.7184658089687333E9, 0.0, 2024-06-15 10:36:48.968
188.0, 48962.74792703962, -27849.93831514577, -115282.87712131467, -187500.02235174447, 58225.400236296686, -187500.02235174447, -187500.02235174447, -187500.02235174447, 0.068, 0.888, -0.41200000000000003, 192.0, 0.0, 0.0, 0.0, 0.0, 0.0, 0.0, 0.0, 0.0, 0.0, 1.718465808968742E9, 0.0, 2024-06-15 10:36:48.968
189.0, 47171.0320915022, -33465.411778141475, -119937.85142157691, -187500.02235174447, 54045.91459583218, -187500.02235174447, -187500.02235174447, -187500.02235174447, 0.068, 0.888, -0.41200000000000003, 192.0, 0.0, 0.0, 0.0, 0.0, 0.0, 0.0, 0.0, 0.0, 0.0, 1.718465808968751E9, 0.0, 2024-06-15 10:36:48.968
190.0, 49031.43483775078, -29107.112182034518, -117636.64992292524, -187500.02235174447, 55928.35616211369, -187500.02235174447, -187500.02235174447, -187500.02235174447, 0.068, 0.888, -0.41200000000000003, 192.0, 0.0, 0.0, 0.0, 0.0, 0.0, 0.0, 0.0, 0.0, 0.0, 1.71846580896876E9, 0.0, 2024-06-15 10:36:48.968
191.0, 50851.224464324056, -22047.89484118162, -112886.41248779447, -187500.02235174447, 59791.922246446884, -187500.02235174447, -187500.02235174447, -187500.02235174447, 0.068, 0.888, -0.41200000000000003, 192.0, 0.0, 0.0, 0.0, 0.0, 0.0, 0.0, 0.0, 0.0, 0.0, 1.7184658089687688E9, 0.0, 2024-06-15 10:36:48.968
192.0, 49371.740147082826, -23626.777366015598, -114406.17464854415, -187500.02235174447, 58095.1119178667, -187500.02235174447, -187500.02235174447, -187500.02235174447, 0.068, 0.888, -0.41200000000000003, 192.0, 0.0, 0.0, 0.0, 0.0, 0.0, 0.0, 0.0, 0.0, 0.0, 1.7184658089687777E9, 0.0, 2024-06-15 10:36:48.968
193.0, 47162.69489082038, -30036.587123464004, -119532.90486728011, -187500.02235174447, 53463.53989404916, -187500.02235174447, -187500.02235174447, -187500.02235174447, 0.076, 0.882, -0.422, 192.0, 2.0, 96.0, 27.0, 144.0, 242.0, 208.0, 0.0, 0.0, 0.0, 1.7184658089687865E9, 0.0, 2024-06-15 10:36:48.968
194.0, 48430.41878109203, -27723.24862757309, -118632.48719364253, -187500.02235174447, 54148.352640670855, -187500.02235174447, -187500.02235174447, -187500.02235174447, 0.076, 0.882, -0.422, 192.0, 0.0, 0.0, 0.0, 0.0, 0.0, 0.0, 0.0, 0.0, 0.0, 1.7184658089687953E9, 0.0, 2024-06-15 10:36:48.968
195.0, 50631.37270586166, -20150.298792159414, -113530.23213508513, -187500.02235174447, 58345.31734529941, -187500.02235174447, -187500.02235174447, -187500.02235174447, 0.076, 0.882, -0.422, 192.0, 0.0, 0.0, 0.0, 0.0, 0.0, 0.0, 0.0, 0.0, 0.0, 1.718465808968804E9, 0.0, 2024-06-15 10:36:48.968
196.0, 49693.15823235014, -20170.79534182493, -113803.48221105126, -187500.02235174447, 57742.13316942849, -187500.02235174447, -187500.02235174447, -187500.02235174447, 0.076, 0.882, -0.422, 192.0, 0.0, 0.0, 0.0, 0.0, 0.0, 0.0, 0.0, 0.0, 0.0, 1.718465808968813E9, 0.0, 2024-06-15 10:36:48.968
197.0, 47221.25646129328, -26843.528669301115, -119095.34711782302, -187500.02235174447, 52911.11652983625, -187500.02235174447, -187500.02235174447, -187500.02235174447, 0.076, 0.882, -0.422, 192.0, 0.0, 0.0, 0.0, 0.0, 0.0, 0.0, 0.0, 0.0, 0.0, 1.718465808968822E9, 0.0, 2024-06-15 10:36:48.968
198.0, 47863.936169616725, -26514.91332231919, -119608.00672864995, -187500.02235174447, 52376.0604710651, -187500.02235174447, -187500.02235174447, -187500.02235174447, 0.076, 0.882, -0.422, 192.0, 0.0, 0.0, 0.0, 0.0, 0.0, 0.0, 0.0, 0.0, 0.0, 1.7184658089688308E9, 0.0, 2024-06-15 10:36:48.968
199.0, 50319.90114687695, -18619.047834759695, -114448.12887288677, -187500.02235174447, 56642.2708800162, -187500.02235174447, -187500.02235174447, -187500.02235174447, 0.076, 0.882, -0.422, 192.0, 0.0, 0.0, 0.0, 0.0, 0.0, 0.0, 0.0, 0.0, 0.0, 1.7184658089688396E9, 0.0, 2024-06-15 10:36:48.968
200.0, 49975.326654353936, -16862.20072057256, -113417.15465988574, -187500.02235174447, 57182.557246989876, -187500.02235174447, -187500.02235174447, -187500.02235174447, 0.076, 0.882, -0.422, 192.0, 0.0, 0.0, 0.0, 0.0, 0.0, 0.0, 0.0, 0.0, 0.0, 1.7184658089688485E9, 0.0, 2024-06-15 10:36:48.968
201.0, 47473.96528410498, -23078.444371038007, -118379.15252198608, -187500.02235174447, 52596.5157266278, -187500.02235174447, -187500.02235174447, -187500.02235174447, 0.076, 0.882, -0.422, 192.0, 0.0, 0.0, 0.0, 0.0, 0.0, 0.0, 0.0, 0.0, 0.0, 1.7184658089688573E9, 0.0, 2024-06-15 10:36:48.968
202.0, 47437.82251332075, -24714.346195977476, -120221.78563139267, -187500.02235174447, 50911.86474703131, -187500.02235174447, -187500.02235174447, -187500.02235174447, 0.076, 0.882, -0.422, 192.0, 0.0, 0.0, 0.0, 0.0, 0.0, 0.0, 0.0, 0.0, 0.0, 1.718465808968866E9, 0.0, 2024-06-15 10:36:48.968
203.0, 49957.26644483405, -17321.70788308476, -115442.49092847001, -187500.02235174447, 54855.65124221459, -187500.02235174447, -187500.02235174447, -187500.02235174447, 0.066, 0.894, -0.426, 192.0, 2.0, 16.0, 27.0, 240.0, 242.0, 176.0, 0.0, 0.0, 0.0, 1.7184658089688752E9, 0.0, 2024-06-15 10:36:48.968
204.0, 50197.97238087325, -14148.788350676103, -113275.10932387225, -187500.02235174447, 56386.67868216976, -187500.02235174447, -187500.02235174447, -187500.02235174447, 0.066, 0.894, -0.426, 192.0, 0.0, 0.0, 0.0, 0.0, 0.0, 0.0, 0.0, 0.0, 0.0, 1.7184658089688842E9, 0.0, 2024-06-15 10:36:48.968
205.0, 47762.39219455626, -19724.676874241457, -117689.24357762857, -187500.02235174447, 52230.01417279413, -187500.02235174447, -187500.02235174447, -187500.02235174447, 0.066, 0.894, -0.426, 192.0, 0.0, 0.0, 0.0, 0.0, 0.0, 0.0, 0.0, 0.0, 0.0, 1.7184658089688928E9, 0.0, 2024-06-15 10:36:48.968
206.0, 47040.43084864984, -23272.166940232153, -120812.07285071288, -187500.02235174447, 49419.282307539266, -187500.02235174447, -187500.02235174447, -187500.02235174447, 0.066, 0.894, -0.426, 192.0, 0.0, 0.0, 0.0, 0.0, 0.0, 0.0, 0.0, 0.0, 0.0, 1.7184658089689016E9, 0.0, 2024-06-15 10:36:48.968
207.0, 49464.432831338985, -16723.195221805003, -116684.55501610697, -187500.02235174447, 52819.47437756949, -187500.02235174447, -187500.02235174447, -187500.02235174447, 0.066, 0.894, -0.426, 192.0, 0.0, 0.0, 0.0, 0.0, 0.0, 0.0, 0.0, 0.0, 0.0, 1.7184658089689107E9, 0.0, 2024-06-15 10:36:48.968
208.0, 50295.35893146502, -12092.696081721317, -113387.65035720472, -187500.02235174447, 55358.63254769237, -187500.02235174447, -187500.02235174447, -187500.02235174447, 0.066, 0.894, -0.426, 192.0, 0.0, 0.0, 0.0, 0.0, 0.0, 0.0, 0.0, 0.0, 0.0, 1.7184658089689195E9, 0.0, 2024-06-15 10:36:48.968
209.0, 48140.7625246957, -16600.305330789724, -116967.46104567779, -187500.02235174447, 51891.675816974144, -187500.02235174447, -187500.02235174447, -187500.02235174447, 0.066, 0.894, -0.426, 192.0, 0.0, 0.0, 0.0, 0.0, 0.0, 0.0, 0.0, 0.0, 0.0, 1.718465808968928E9, 0.0, 2024-06-15 10:36:48.968
210.0, 46809.98436331563, -21661.835510949553, -121089.14507498087, -187500.02235174447, 48200.48638588028, -187500.02235174447, -187500.02235174447, -187500.02235174447, 0.066, 0.894, -0.426, 192.0, 0.0, 0.0, 0.0, 0.0, 0.0, 0.0, 0.0, 0.0, 0.0, 1.7184658089689372E9, 0.0, 2024-06-15 10:36:48.968
211.0, 48972.895619022325, -16398.62554056949, -117924.27217057612, -187500.02235174447, 50803.23526897851, -187500.02235174447, -187500.02235174447, -187500.02235174447, 0.066, 0.894, -0.426, 192.0, 0.0, 0.0, 0.0, 0.0, 0.0, 0.0, 0.0, 0.0, 0.0, 1.718465808968946E9, 0.0, 2024-06-15 10:36:48.968
212.0, 50382.642493563, -10511.55603069735, -113717.27153268714, -187500.02235174447, 54178.30397824097, -187500.02235174447, -187500.02235174447, -187500.02235174447, 0.066, 0.894, -0.426, 192.0, 0.0, 0.0, 0.0, 0.0, 0.0, 0.0, 0.0, 0.0, 0.0, 1.7184658089689548E9, 0.0, 2024-06-15 10:36:48.968
213.0, 48550.5594075393, -13646.119969620702, -116205.87005685212, -187500.02235174447, 51658.92710196103, -187500.02235174447, -187500.02235174447, -187500.02235174447, 0.062, 0.894, -0.434, 192.0, 1.0, 240.0, 27.0, 240.0, 242.0, 112.0, 0.0, 0.0, 0.0, 1.7184658089689636E9, 0.0, 2024-06-15 10:36:48.968
214.0, 46706.719303932114, -19792.112087263118, -121031.58933300845, -187500.02235174447, 47339.0725063172, -187500.02235174447, -187500.02235174447, -187500.02235174447, 0.062, 0.894, -0.434, 192.0, 0.0, 0.0, 0.0, 0.0, 0.0, 0.0, 0.0, 0.0, 0.0, 1.7184658089689724E9, 0.0, 2024-06-15 10:36:48.968
215.0, 48428.8318072357, -16224.21487858473, -119104.57838828307, -187500.02235174447, 48903.06876934395, -187500.02235174447, -187500.02235174447, -187500.02235174447, 0.062, 0.894, -0.434, 192.0, 0.0, 0.0, 0.0, 0.0, 0.0, 0.0, 0.0, 0.0, 0.0, 1.7184658089689813E9, 0.0, 2024-06-15 10:36:48.968
216.0, 50309.32877174959, -9434.179596207094, -114315.44891780007, -187500.02235174447, 52810.13134838717, -187500.02235174447, -187500.02235174447, -187500.02235174447, 0.062, 0.894, -0.434, 192.0, 0.0, 0.0, 0.0, 0.0, 0.0, 0.0, 0.0, 0.0, 0.0, 1.7184658089689903E9, 0.0, 2024-06-15 10:36:48.968
217.0, 48967.03946197504, -11002.847373825, -115580.80352315945, -187500.02235174447, 51358.05026984814, -187500.02235174447, -187500.02235174447, -187500.02235174447, 0.062, 0.894, -0.434, 192.0, 0.0, 0.0, 0.0, 0.0, 0.0, 0.0, 0.0, 0.0, 0.0, 1.7184658089689991E9, 0.0, 2024-06-15 10:36:48.968
218.0, 46737.765876980535, -17705.777908060303, -120745.91168712518, -187500.02235174447, 46711.97196387911, -187500.02235174447, -187500.02235174447, -187500.02235174447, 0.062, 0.894, -0.434, 192.0, 0.0, 0.0, 0.0, 0.0, 0.0, 0.0, 0.0, 0.0, 0.0, 1.7184658089690077E9, 0.0, 2024-06-15 10:36:48.969
219.0, 47908.393789338326, -16013.21441092663, -120121.38159529945, -187500.02235174447, 47179.41399567294, -187500.02235174447, -187500.02235174447, -187500.02235174447, 0.062, 0.894, -0.434, 192.0, 0.0, 0.0, 0.0, 0.0, 0.0, 0.0, 0.0, 0.0, 0.0, 1.7184658089690166E9, 0.0, 2024-06-15 10:36:48.969
220.0, 50192.809127904075, -8610.69662698467, -114934.88281189, -187500.02235174447, 51473.362919493076, -187500.02235174447, -187500.02235174447, -187500.02235174447, 0.062, 0.894, -0.434, 192.0, 0.0, 0.0, 0.0, 0.0, 0.0, 0.0, 0.0, 0.0, 0.0, 1.7184658089690256E9, 0.0, 2024-06-15 10:36:48.969
221.0, 49401.020932319276, -8508.750320524015, -114874.08606697156, -187500.02235174447, 51189.853392821955, -187500.02235174447, -187500.02235174447, -187500.02235174447, 0.062, 0.894, -0.434, 192.0, 0.0, 0.0, 0.0, 0.0, 0.0, 0.0, 0.0, 0.0, 0.0, 1.7184658089690356E9, 0.0, 2024-06-15 10:36:48.969
222.0, 46950.75564989515, -15325.920620670393, -120075.64992614389, -187500.02235174447, 46460.62659747918, -187500.02235174447, -187500.02235174447, -187500.02235174447, 0.062, 0.894, -0.434, 192.0, 0.0, 0.0, 0.0, 0.0, 0.0, 0.0, 0.0, 0.0, 0.0, 1.7184658089690444E9, 0.0, 2024-06-15 10:36:48.969
223.0, 47452.932292572536, -15720.853593451215, -120896.3836307983, -187500.02235174447, 45686.58568699189, -187500.02235174447, -187500.02235174447, -187500.02235174447, 0.066, 0.892, -0.426, 192.0, 2.0, 16.0, 27.0, 224.0, 242.0, 176.0, 0.0, 0.0, 0.0, 1.718465808969074E9, 0.0, 2024-06-15 10:36:48.969
224.0, 49944.19067432769, -8256.712050045973, -115763.35022012595, -187500.02235174447, 49961.490924536105, -187500.02235174447, -187500.02235174447, -187500.02235174447, 0.066, 0.892, -0.426, 192.0, 0.0, 0.0, 0.0, 0.0, 0.0, 0.0, 0.0, 0.0, 0.0, 1.7184658089690833E9, 0.0, 2024-06-15 10:36:48.969
225.0, 49733.592538069795, -6549.776381227539, -114474.74980053304, -187500.02235174447, 50755.04490793287, -187500.02235174447, -187500.02235174447, -187500.02235174447, 0.066, 0.892, -0.426, 192.0, 0.0, 0.0, 0.0, 0.0, 0.0, 0.0, 0.0, 0.0, 0.0, 1.7184658089690933E9, 0.0, 2024-06-15 10:36:48.969
226.0, 47251.78894421923, -12964.324708500471, -119323.44666998944, -187500.02235174447, 46293.05556929774, -187500.02235174447, -187500.02235174447, -187500.02235174447, 0.066, 0.892, -0.426, 192.0, 0.0, 0.0, 0.0, 0.0, 0.0, 0.0, 0.0, 0.0, 0.0, 1.7184658089691188E9, 0.0, 2024-06-15 10:36:48.969
227.0, 47063.27433148317, -15335.353056830534, -121470.48818713287, -187500.02235174447, 44384.93184863709, -187500.02235174447, -187500.02235174447, -187500.02235174447, 0.066, 0.892, -0.426, 192.0, 0.0, 0.0, 0.0, 0.0, 0.0, 0.0, 0.0, 0.0, 0.0, 1.7184658089691284E9, 0.0, 2024-06-15 10:36:48.969
228.0, 49609.11567319819, -8288.272713216867, -116734.86879287587, -187500.02235174447, 48353.84170458814, -187500.02235174447, -187500.02235174447, -187500.02235174447, 0.066, 0.892, -0.426, 192.0, 0.0, 0.0, 0.0, 0.0, 0.0, 0.0, 0.0, 0.0, 0.0, 1.7184658089691372E9, 0.0, 2024-06-15 10:36:48.969
229.0, 50012.877585038856, -4961.729641166883, -114206.81943974727, -187500.02235174447, 50261.89837001543, -187500.02235174447, -187500.02235174447, -187500.02235174447, 0.066, 0.892, -0.426, 192.0, 0.0, 0.0, 0.0, 0.0, 0.0, 0.0, 0.0, 0.0, 0.0, 1.7184658089691625E9, 0.0, 2024-06-15 10:36:48.969
230.0, 47637.60240526228, -10548.972850915534, -118393.10001052619, -187500.02235174447, 46339.413087298046, -187500.02235174447, -187500.02235174447, -187500.02235174447, 0.066, 0.892, -0.426, 192.0, 0.0, 0.0, 0.0, 0.0, 0.0, 0.0, 0.0, 0.0, 0.0, 1.7184658089691715E9, 0.0, 2024-06-15 10:36:48.969
231.0, 46767.69486280619, -14710.398281860147, -121731.10952748175, -187500.02235174447, 43386.01003718496, -187500.02235174447, -187500.02235174447, -187500.02235174447, 0.066, 0.892, -0.426, 192.0, 0.0, 0.0, 0.0, 0.0, 0.0, 0.0, 0.0, 0.0, 0.0, 1.7184658089691963E9, 0.0, 2024-06-15 10:36:48.969
232.0, 49175.87181042097, -8601.979446647101, -117749.794453358, -187500.02235174447, 46726.00885939704, -187500.02235174447, -187500.02235174447, -187500.02235174447, 0.066, 0.892, -0.426, 192.0, 0.0, 0.0, 0.0, 0.0, 0.0, 0.0, 0.0, 0.0, 0.0, 1.7184658089692054E9, 0.0, 2024-06-15 10:36:48.969
233.0, 50156.06286001955, -3889.114128245608, -114226.04193997884, -187500.02235174447, 49522.21209075595, -187500.02235174447, -187500.02235174447, -187500.02235174447, 0.066, 0.892, -0.426, 192.0, 0.0, 0.0, 0.0, 0.0, 0.0, 0.0, 0.0, 0.0, 0.0, 1.7184658089692144E9, 0.0, 2024-06-15 10:36:48.969
234.0, 48048.67333753983, -8330.98689687096, -117525.740566938, -187500.02235174447, 46337.89316867509, -187500.02235174447, -187500.02235174447, -187500.02235174447, 0.07, 0.888, -0.42, 192.0, 2.0, 48.0, 27.0, 192.0, 242.0, 224.0, 0.0, 0.0, 0.0, 1.7184658089692233E9, 0.0, 2024-06-15 10:36:48.969
235.0, 46584.70113095059, -13940.961830730657, -121809.47474354206, -187500.02235174447, 42541.315262474454, -187500.02235174447, -187500.02235174447, -187500.02235174447, 0.07, 0.888, -0.42, 192.0, 0.0, 0.0, 0.0, 0.0, 0.0, 0.0, 0.0, 0.0, 0.0, 1.718465808969232E9, 0.0, 2024-06-15 10:36:48.969
236.0, 48661.71463271554, -9234.645573454569, -118884.95014726522, -187500.02235174447, 44988.361893697016, -187500.02235174447, -187500.02235174447, -187500.02235174447, 0.07, 0.888, -0.42, 192.0, 0.0, 0.0, 0.0, 0.0, 0.0, 0.0, 0.0, 0.0, 0.0, 1.7184658089692411E9, 0.0, 2024-06-15 10:36:48.969
237.0, 50193.569087215554, -3315.344848077875, -114534.11603380633, -187500.02235174447, 48529.61582298468, -187500.02235174447, -187500.02235174447, -187500.02235174447, 0.07, 0.888, -0.42, 192.0, 0.0, 0.0, 0.0, 0.0, 0.0, 0.0, 0.0, 0.0, 0.0, 1.71846580896925E9, 0.0, 2024-06-15 10:36:48.969
238.0, 48475.09991825819, -6335.847835045795, -116751.8561186619, -187500.02235174447, 46263.774784061294, -187500.02235174447, -187500.02235174447, -187500.02235174447, 0.07, 0.888, -0.42, 192.0, 0.0, 0.0, 0.0, 0.0, 0.0, 0.0, 0.0, 0.0, 0.0, 1.7184658089692588E9, 0.0, 2024-06-15 10:36:48.969
239.0, 46518.182339451596, -12930.864147050876, -121681.24278560195, -187500.02235174447, 41856.45781236384, -187500.02235174447, -187500.02235174447, -187500.02235174447, 0.07, 0.888, -0.42, 192.0, 0.0, 0.0, 0.0, 0.0, 0.0, 0.0, 0.0, 0.0, 0.0, 1.7184658089692676E9, 0.0, 2024-06-15 10:36:48.969
240.0, 48125.183358810355, -9977.3046347266, -120024.26326564113, -187500.02235174447, 43221.255328804895, -187500.02235174447, -187500.02235174447, -187500.02235174447, 0.07, 0.888, -0.42, 192.0, 0.0, 0.0, 0.0, 0.0, 0.0, 0.0, 0.0, 0.0, 0.0, 1.7184658089692764E9, 0.0, 2024-06-15 10:36:48.969
241.0, 50104.184461138786, -3198.556983298896, -115150.59949762817, -187500.02235174447, 47236.96973764536, -187500.02235174447, -187500.02235174447, -187500.02235174447, 0.07, 0.888, -0.42, 192.0, 0.0, 0.0, 0.0, 0.0, 0.0, 0.0, 0.0, 0.0, 0.0, 1.7184658089692852E9, 0.0, 2024-06-15 10:36:48.969
242.0, 48889.00952208156, -4581.52646798211, -116120.86637268859, -187500.02235174447, 46052.14846755844, -187500.02235174447, -187500.02235174447, -187500.02235174447, 0.07, 0.888, -0.42, 192.0, 0.0, 0.0, 0.0, 0.0, 0.0, 0.0, 0.0, 0.0, 0.0, 1.7184658094474247E9, 0.0, 2024-06-15 10:36:49.447
243.0, 46592.345427554304, -11587.01021516445, -121300.70433625036, -187500.02235174447, 41380.23154499907, -187500.02235174447, -187500.02235174447, -187500.02235174447, 0.07, 0.888, -0.42, 192.0, 0.0, 0.0, 0.0, 0.0, 0.0, 0.0, 0.0, 0.0, 0.0, 1.718465809447606E9, 0.0, 2024-06-15 10:36:49.447
244.0, 47579.15259351166, -10652.617889954792, -121084.56296736753, -187500.02235174447, 41505.08838952642, -187500.02235174447, -187500.02235174447, -187500.02235174447, 0.07, 0.87, -0.422, 192.0, 2.0, 48.0, 27.0, 48.0, 242.0, 208.0, 0.0, 0.0, 0.0, 1.7184658094476192E9, 0.0, 2024-06-15 10:36:49.447
245.0, 49885.986731766076, -3432.8256169349693, -116003.02797592021, -187500.02235174447, 45729.50103634608, -187500.02235174447, -187500.02235174447, -187500.02235174447, 0.07, 0.87, -0.422, 192.0, 0.0, 0.0, 0.0, 0.0, 0.0, 0.0, 0.0, 0.0, 0.0, 1.718465809447631E9, 0.0, 2024-06-15 10:36:49.447
246.0, 49219.86004350901, -3167.242189317011, -115738.98681866967, -187500.02235174447, 45618.368162914296, -187500.02235174447, -187500.02235174447, -187500.02235174447, 0.07, 0.87, -0.422, 192.0, 0.0, 0.0, 0.0, 0.0, 0.0, 0.0, 0.0, 0.0, 0.0, 1.7184658094476576E9, 0.0, 2024-06-15 10:36:49.447
247.0, 46775.87560127683, -10078.982720253793, -120824.92510377469, -187500.02235174447, 40969.898220288545, -187500.02235174447, -187500.02235174447, -187500.02235174447, 0.07, 0.87, -0.422, 192.0, 0.0, 0.0, 0.0, 0.0, 0.0, 0.0, 0.0, 0.0, 0.0, 1.7184658094476676E9, 0.0, 2024-06-15 10:36:49.447
248.0, 47112.13524486247, -11127.681866607889, -121947.78733823149, -187500.02235174447, 39937.404088664545, -187500.02235174447, -187500.02235174447, -187500.02235174447, 0.07, 0.87, -0.422, 192.0, 0.0, 0.0, 0.0, 0.0, 0.0, 0.0, 0.0, 0.0, 0.0, 1.718465809447677E9, 0.0, 2024-06-15 10:36:49.447
249.0, 49582.71826299647, -3965.333576838205, -117029.75535747473, -187500.02235174447, 44033.249501377286, -187500.02235174447, -187500.02235174447, -187500.02235174447, 0.07, 0.87, -0.422, 192.0, 0.0, 0.0, 0.0, 0.0, 0.0, 0.0, 0.0, 0.0, 0.0, 1.7184658094476862E9, 0.0, 2024-06-15 10:36:49.447
250.0, 49503.70484634696, -2046.2127979055404, -115526.68994983316, -187500.02235174447, 45009.08196080708, -187500.02235174447, -187500.02235174447, -187500.02235174447, 0.07, 0.87, -0.422, 192.0, 0.0, 0.0, 0.0, 0.0, 0.0, 0.0, 0.0, 0.0, 0.0, 1.7184658094476955E9, 0.0, 2024-06-15 10:36:49.447
251.0, 47049.08097375405, -8480.855343443793, -120261.90701268996, -187500.02235174447, 40599.06042803054, -187500.02235174447, -187500.02235174447, -187500.02235174447, 0.07, 0.87, -0.422, 192.0, 0.0, 0.0, 0.0, 0.0, 0.0, 0.0, 0.0, 0.0, 0.0, 1.7184658094477043E9, 0.0, 2024-06-15 10:36:49.447
252.0, 46691.98950433606, -11491.277693662369, -122729.7184145115, -187500.02235174447, 38383.175537964766, -187500.02235174447, -187500.02235174447, -187500.02235174447, 0.07, 0.87, -0.422, 192.0, 0.0, 0.0, 0.0, 0.0, 0.0, 0.0, 0.0, 0.0, 0.0, 1.7184658094477134E9, 0.0, 2024-06-15 10:36:49.447
253.0, 49169.36745278448, -4841.00786936377, -118272.33353523417, -187500.02235174447, 42113.16759743304, -187500.02235174447, -187500.02235174447, -187500.02235174447, 0.07, 0.87, -0.422, 192.0, 0.0, 0.0, 0.0, 0.0, 0.0, 0.0, 0.0, 0.0, 0.0, 1.7184658094477224E9, 0.0, 2024-06-15 10:36:49.447
254.0, 49697.74033996348, -1354.2698448025997, -115625.28349462552, -187500.02235174447, 44118.38729600755, -187500.02235174447, -187500.02235174447, -187500.02235174447, 0.076, 0.878, -0.424, 192.0, 2.0, 96.0, 27.0, 112.0, 242.0, 192.0, 0.0, 0.0, 0.0, 1.7184658094477315E9, 0.0, 2024-06-15 10:36:49.447
255.0, 47449.356013459685, -6742.2696044766435, -119553.93785881257, -187500.02235174447, 40385.310695804445, -187500.02235174447, -187500.02235174447, -187500.02235174447, 0.076, 0.878, -0.424, 192.0, 0.0, 0.0, 0.0, 0.0, 0.0, 0.0, 0.0, 0.0, 0.0, 1.7184658094477403E9, 0.0, 2024-06-15 10:36:49.447
0.0, 46422.38276271615, -11440.874509915651, -123157.70961734172, -187500.02235174447, 37167.93354367418, -187500.02235174447, -187500.02235174447, -187500.02235174447, 0.076, 0.878, -0.424, 192.0, 0.0, 0.0, 0.0, 0.0, 0.0, 0.0, 0.0, 0.0, 0.0, 1.7184658094477491E9, 0.0, 2024-06-15 10:36:49.447
1.0, 48698.14797617769, -5868.5399137186905, -119568.04180956386, -187500.02235174447, 40169.571658321816, -187500.02235174447, -187500.02235174447, -187500.02235174447, 0.076, 0.878, -0.424, 192.0, 0.0, 0.0, 0.0, 0.0, 0.0, 0.0, 0.0, 0.0, 0.0, 1.7184658094477582E9, 0.0, 2024-06-15 10:36:49.447
2.0, 49794.121062054764, -1005.7390935109966, -115954.99407708575, -187500.02235174447, 43051.60558838911, -187500.02235174447, -187500.02235174447, -187500.02235174447, 0.076, 0.878, -0.424, 192.0, 0.0, 0.0, 0.0, 0.0, 0.0, 0.0, 0.0, 0.0, 0.0, 1.7184658094477673E9, 0.0, 2024-06-15 10:36:49.447
3.0, 47835.14712275829, -5116.269602330876, -118938.68374093578, -187500.02235174447, 40124.979928133485, -187500.02235174447, -187500.02235174447, -187500.02235174447, 0.076, 0.878, -0.424, 192.0, 0.0, 0.0, 0.0, 0.0, 0.0, 0.0, 0.0, 0.0, 0.0, 1.7184658094477758E9, 0.0, 2024-06-15 10:36:49.447
4.0, 46252.12952520008, -11050.680106959357, -123367.07840765458, -187500.02235174447, 36171.738645045596, -187500.02235174447, -187500.02235174447, -187500.02235174447, 0.076, 0.878, -0.424, 192.0, 0.0, 0.0, 0.0, 0.0, 0.0, 0.0, 0.0, 0.0, 0.0, 1.718465809447785E9, 0.0, 2024-06-15 10:36:49.447
5.0, 48187.99176072976, -6920.4800630188065, -120842.38181619428, -187500.02235174447, 38291.64514442028, -187500.02235174447, -187500.02235174447, -187500.02235174447, 0.076, 0.878, -0.424, 192.0, 0.0, 0.0, 0.0, 0.0, 0.0, 0.0, 0.0, 0.0, 0.0, 1.7184658094477935E9, 0.0, 2024-06-15 10:36:49.447
6.0, 49779.033634547435, -971.04918611636, -116505.18226685314, -187500.02235174447, 41851.78629777268, -187500.02235174447, -187500.02235174447, -187500.02235174447, 0.076, 0.878, -0.424, 192.0, 0.0, 0.0, 0.0, 0.0, 0.0, 0.0, 0.0, 0.0, 0.0, 1.7184658094478025E9, 0.0, 2024-06-15 10:36:49.447
7.0, 48243.960528845855, -3580.727109995736, -118363.61805958964, -187500.02235174447, 39904.92700397098, -187500.02235174447, -187500.02235174447, -187500.02235174447, 0.076, 0.878, -0.424, 192.0, 0.0, 0.0, 0.0, 0.0, 0.0, 0.0, 0.0, 0.0, 0.0, 1.7184658094478116E9, 0.0, 2024-06-15 10:36:49.447
8.0, 46261.22668519338, -10230.102864516124, -123238.2429526142, -187500.02235174447, 35537.865524037545, -187500.02235174447, -187500.02235174447, -187500.02235174447, 0.07200000000000001, 0.878, -0.43, 192.0, 2.0, 64.0, 27.0, 112.0, 242.0, 144.0, 0.0, 0.0, 0.0, 1.7184658094478204E9, 0.0, 2024-06-15 10:36:49.447
9.0, 47674.326321402354, -7892.9374090358515, -121991.75321957508, -187500.02235174447, 36576.52873713121, -187500.02235174447, -187500.02235174447, -187500.02235174447, 0.07200000000000001, 0.878, -0.43, 192.0, 0.0, 0.0, 0.0, 0.0, 0.0, 0.0, 0.0, 0.0, 0.0, 1.7184658094478292E9, 0.0, 2024-06-15 10:36:49.447
10.0, 49656.92605458809, -1215.130235568313, -117216.75005158783, -187500.02235174447, 40556.50270658764, -187500.02235174447, -187500.02235174447, -187500.02235174447, 0.07200000000000001, 0.878, -0.43, 192.0, 0.0, 0.0, 0.0, 0.0, 0.0, 0.0, 0.0, 0.0, 0.0, 1.718465809447838E9, 0.0, 2024-06-15 10:36:49.447
11.0, 48611.400855946646, -2217.7624366000223, -117861.55317563453, -187500.02235174447, 39676.89450703794, -187500.02235174447, -187500.02235174447, -187500.02235174447, 0.07200000000000001, 0.878, -0.43, 192.0, 0.0, 0.0, 0.0, 0.0, 0.0, 0.0, 0.0, 0.0, 0.0, 1.718465809447847E9, 0.0, 2024-06-15 10:36:49.447
12.0, 46353.181761882515, -9167.746802299835, -122941.25532403652, -187500.02235174447, 35076.9278498802, -187500.02235174447, -187500.02235174447, -187500.02235174447, 0.07200000000000001, 0.878, -0.43, 192.0, 0.0, 0.0, 0.0, 0.0, 0.0, 0.0, 0.0, 0.0, 0.0, 1.7184658094478557E9, 0.0, 2024-06-15 10:36:49.447
13.0, 47168.95337926786, -8758.285195623064, -123035.78085133802, -187500.02235174447, 34970.51119452849, -187500.02235174447, -187500.02235174447, -187500.02235174447, 0.07200000000000001, 0.878, -0.43, 192.0, 0.0, 0.0, 0.0, 0.0, 0.0, 0.0, 0.0, 0.0, 0.0, 1.7184658094478648E9, 0.0, 2024-06-15 10:36:49.447
14.0, 49454.97804343439, -1753.6284629855709, -118135.42910044541, -187500.02235174447, 39098.92309891261, -187500.02235174447, -187500.02235174447, -187500.02235174447, 0.07200000000000001, 0.878, -0.43, 192.0, 0.0, 0.0, 0.0, 0.0, 0.0, 0.0, 0.0, 0.0, 0.0, 1.7184658094478736E9, 0.0, 2024-06-15 10:36:49.447
15.0, 48972.5603428555, -1110.2782023284676, -117550.75216898348, -187500.02235174447, 39311.219967749115, -187500.02235174447, -187500.02235174447, -187500.02235174447, 0.07200000000000001, 0.878, -0.43, 192.0, 0.0, 0.0, 0.0, 0.0, 0.0, 0.0, 0.0, 0.0, 0.0, 1.7184658094478824E9, 0.0, 2024-06-15 10:36:49.447
16.0, 46585.52814549544, -7844.7470479902095, -122466.86189971709, -187500.02235174447, 34802.47077971349, -187500.02235174447, -187500.02235174447, -187500.02235174447, 0.07200000000000001, 0.878, -0.43, 192.0, 0.0, 0.0, 0.0, 0.0, 0.0, 0.0, 0.0, 0.0, 0.0, 1.7184658094478912E9, 0.0, 2024-06-15 10:36:49.447
17.0, 46734.07783914541, -9407.71513077201, -123915.63492007673, -187500.02235174447, 33513.44567697593, -187500.02235174447, -187500.02235174447, -187500.02235174447, 0.07200000000000001, 0.878, -0.43, 192.0, 0.0, 0.0, 0.0, 0.0, 0.0, 0.0, 0.0, 0.0, 0.0, 1.7184658094479E9, 0.0, 2024-06-15 10:36:49.447
18.0, 49145.87576936195, -2540.879254445941, -119206.56939823263, -187500.02235174447, 37508.37296347296, -187500.02235174447, -187500.02235174447, -187500.02235174447, 0.07200000000000001, 0.878, -0.43, 192.0, 0.0, 0.0, 0.0, 0.0, 0.0, 0.0, 0.0, 0.0, 0.0, 1.718465809447909E9, 0.0, 2024-06-15 10:36:49.447
19.0, 49234.70160182734, -287.53284067307004, -117420.57560927578, -187500.02235174447, 38793.419455697476, -187500.02235174447, -187500.02235174447, -187500.02235174447, 0.07200000000000001, 0.884, -0.426, 192.0, 2.0, 64.0, 27.0, 160.0, 242.0, 176.0, 0.0, 0.0, 0.0, 1.718465809447918E9, 0.0, 2024-06-15 10:36:49.447
