%OpenBCI Raw EXG Data
%Number of channels = 8
%Sample Rate = 250 Hz
%Board = OpenBCI_GUI$BoardCytonSerial
Sample Index, EXG Channel 0, EXG Channel 1, EXG Channel 2, EXG Channel 3, EXG Channel 4, EXG Channel 5, EXG Channel 6, EXG Channel 7, Accel Channel 0, Accel Channel 1, Accel Channel 2, Other, Other, Other, Other, Other, Other, Other, Analog Channel 0, Analog Channel 1, Analog Channel 2, Timestamp, Other, Timestamp (Formatted)
0.0, 0.0, 0.0, 0.0, 0.0, 0.0, 0.0, 0.0, 0.0, -0.078, 0.978, 0.08, 192.0, 253.0, 144.0, 30.0, 144.0, 2.0, 128.0, 0.0, 0.0, 0.0, 1.7184675037385674E9, 0.0, 2024-06-15 11:05:03.738
1.0, 72671.33267776165, 59869.84042761808, 75143.6367802187, -187500.02235174447, 109013.10104287876, -187500.02235174447, -166692.51521736567, -187500.02235174447, -0.078, 0.978, 0.08, 192.0, 0.0, 0.0, 0.0, 0.0, 0.0, 0.0, 0.0, 0.0, 0.0, 1.7184675042195425E9, 0.0, 2024-06-15 11:05:04.219
2.0, 72771.73671385489, 61032.466415460876, 75893.06842006069, -187500.02235174447, 108343.06279934202, -187500.02235174447, -166663.48030131822, -187500.02235174447, -0.078, 0.978, 0.08, 192.0, 0.0, 0.0, 0.0, 0.0, 0.0, 0.0, 0.0, 0.0, 0.0, 1.718467504219646E9, 0.0, 2024-06-15 11:05:04.219
3.0, 72679.62517495456, 60239.67239137559, 75429.87321971336, -187500.02235174447, 108242.16702487077, -187500.02235174447, -166806.06207919863, -187500.02235174447, -0.078, 0.978, 0.08, 192.0, 0.0, 0.0, 0.0, 0.0, 0.0, 0.0, 0.0, 0.0, 0.0, 1.718467504219658E9, 0.0, 2024-06-15 11:05:04.219
4.0, 72541.31258026512, 58905.474413093856, 74647.22688761078, -187500.02235174447, 108937.2615739419, -187500.02235174447, -166841.8248703271, -187500.02235174447, -0.078, 0.978, 0.08, 192.0, 0.0, 0.0, 0.0, 0.0, 0.0, 0.0, 0.0, 0.0, 0.0, 1.7184675042196684E9, 0.0, 2024-06-15 11:05:04.219
5.0, 72628.86436329655, 59538.9004992128, 74987.95688008748, -187500.02235174447, 109160.98018419507, -187500.02235174447, -166703.6463861044, -187500.02235174447, -0.078, 0.978, 0.08, 192.0, 0.0, 0.0, 0.0, 0.0, 0.0, 0.0, 0.0, 0.0, 0.0, 1.7184675042196796E9, 0.0, 2024-06-15 11:05:04.219
6.0, 72783.67254539402, 60948.24504235328, 75834.52920133225, -187500.02235174447, 108413.76136705416, -187500.02235174447, -166683.30629865007, -187500.02235174447, -0.078, 0.978, 0.08, 192.0, 0.0, 0.0, 0.0, 0.0, 0.0, 0.0, 0.0, 0.0, 0.0, 1.7184675042196898E9, 0.0, 2024-06-15 11:05:04.219
7.0, 72710.13530613606, 60473.49399012256, 75600.72995432973, -187500.02235174447, 108199.63165517231, -187500.02235174447, -166779.73172423028, -187500.02235174447, -0.078, 0.978, 0.08, 192.0, 0.0, 0.0, 0.0, 0.0, 0.0, 0.0, 0.0, 0.0, 0.0, 1.7184675042197E9, 0.0, 2024-06-15 11:05:04.219
8.0, 72579.15408362796, 59047.22917642941, 74746.11100508107, -187500.02235174447, 108796.28912166228, -187500.02235174447, -166868.78107414022, -187500.02235174447, -0.076, 0.982, 0.088, 192.0, 253.0, 160.0, 30.0, 176.0, 2.0, 192.0, 0.0, 0.0, 0.0, 1.71846750421971E9, 0.0, 2024-06-15 11:05:04.219
9.0, 72626.9421132734, 59298.865115507266, 74886.41290502703, -187500.02235174447, 109290.95557820269, -187500.02235174447, -166714.12935425394, -187500.02235174447, -0.076, 0.982, 0.088, 192.0, 0.0, 0.0, 0.0, 0.0, 0.0, 0.0, 0.0, 0.0, 0.0, 1.7184675042197201E9, 0.0, 2024-06-15 11:05:04.219
10.0, 72826.63259823712, 60860.08976222155, 75762.75774988625, -187500.02235174447, 108558.15363623544, -187500.02235174447, -166659.12171114943, -187500.02235174447, -0.076, 0.982, 0.088, 192.0, 0.0, 0.0, 0.0, 0.0, 0.0, 0.0, 0.0, 0.0, 0.0, 1.7184675042197304E9, 0.0, 2024-06-15 11:05:04.219
11.0, 72821.46934526793, 60746.36408643295, 75752.38654045899, -187500.02235174447, 108186.15355326576, -187500.02235174447, -166757.8046629196, -187500.02235174447, -0.076, 0.982, 0.088, 192.0, 0.0, 0.0, 0.0, 0.0, 0.0, 0.0, 0.0, 0.0, 0.0, 1.7184675042197404E9, 0.0, 2024-06-15 11:05:04.219
12.0, 72691.31513730469, 59296.02644396144, 74892.60433824114, -187500.02235174447, 108651.20394840288, -187500.02235174447, -166863.34960023756, -187500.02235174447, -0.076, 0.982, 0.088, 192.0, 0.0, 0.0, 0.0, 0.0, 0.0, 0.0, 0.0, 0.0, 0.0, 1.7184675042197502E9, 0.0, 2024-06-15 11:05:04.219
13.0, 72680.11691333257, 59116.877212152154, 74808.85235176711, -187500.02235174447, 109355.79798886753, -187500.02235174447, -166700.7406593252, -187500.02235174447, -0.076, 0.982, 0.088, 192.0, 0.0, 0.0, 0.0, 0.0, 0.0, 0.0, 0.0, 0.0, 0.0, 1.7184675042197602E9, 0.0, 2024-06-15 11:05:04.219
14.0, 72887.18347396654, 60696.117364897415, 75650.48493748724, -187500.02235174447, 108703.79760310621, -187500.02235174447, -166659.30052510506, -187500.02235174447, -0.076, 0.982, 0.088, 192.0, 0.0, 0.0, 0.0, 0.0, 0.0, 0.0, 0.0, 0.0, 0.0, 1.71846750421977E9, 0.0, 2024-06-15 11:05:04.219
15.0, 72914.47495394647, 60982.77848753673, 75894.78950438375, -187500.02235174447, 108216.93190538073, -187500.02235174447, -166717.12448801094, -187500.02235174447, -0.076, 0.982, 0.088, 192.0, 0.0, 0.0, 0.0, 0.0, 0.0, 0.0, 0.0, 0.0, 0.0, 1.71846750421978E9, 0.0, 2024-06-15 11:05:04.219
16.0, 72779.98450755888, 59618.49506121816, 75074.1228549627, -187500.02235174447, 108519.64158053894, -187500.02235174447, -166855.50413793375, -187500.02235174447, -0.076, 0.982, 0.088, 192.0, 0.0, 0.0, 0.0, 0.0, 0.0, 0.0, 0.0, 0.0, 0.0, 1.71846750421979E9, 0.0, 2024-06-15 11:05:04.219
17.0, 72715.34326259414, 59037.37205712462, 74773.80481646118, -187500.02235174447, 109324.84082279693, -187500.02235174447, -166754.94363962935, -187500.02235174447, -0.076, 0.982, 0.088, 192.0, 0.0, 0.0, 0.0, 0.0, 0.0, 0.0, 0.0, 0.0, 0.0, 1.7184675042197998E9, 0.0, 2024-06-15 11:05:04.219
18.0, 72910.13871552215, 60527.428749493214, 75546.54932577006, -187500.02235174447, 108860.19275906001, -187500.02235174447, -166661.96038269525, -187500.02235174447, -0.078, 0.982, 0.096, 192.0, 253.0, 144.0, 30.0, 176.0, 3.0, 0.0, 0.0, 0.0, 0.0, 1.71846750421981E9, 0.0, 2024-06-15 11:05:04.219
19.0, 72981.75370475695, 61173.77414390733, 75992.57838637572, -187500.02235174447, 108237.40610330178, -187500.02235174447, -166722.08657528003, -187500.02235174447, -0.078, 0.982, 0.096, 192.0, 0.0, 0.0, 0.0, 0.0, 0.0, 0.0, 0.0, 0.0, 0.0, 1.71846750421982E9, 0.0, 2024-06-15 11:05:04.219
20.0, 72847.8444037252, 59952.653640824996, 75275.95910739411, -187500.02235174447, 108394.5835703115, -187500.02235174447, -166858.8345478576, -187500.02235174447, -0.078, 0.982, 0.096, 192.0, 0.0, 0.0, 0.0, 0.0, 0.0, 0.0, 0.0, 0.0, 0.0, 1.7184675042198296E9, 0.0, 2024-06-15 11:05:04.219
21.0, 72760.00204801584, 59019.73653074939, 74763.2994965672, -187500.02235174447, 109251.72826668361, -187500.02235174447, -166791.57814879157, -187500.02235174447, -0.078, 0.982, 0.096, 192.0, 0.0, 0.0, 0.0, 0.0, 0.0, 0.0, 0.0, 0.0, 0.0, 1.718467504219839E9, 0.0, 2024-06-15 11:05:04.219
22.0, 72933.04925358883, 60277.53624648288, 75408.48260026964, -187500.02235174447, 109028.34493259728, -187500.02235174447, -166673.7397520232, -187500.02235174447, -0.078, 0.982, 0.096, 192.0, 0.0, 0.0, 0.0, 0.0, 0.0, 0.0, 0.0, 0.0, 0.0, 1.7184675042198489E9, 0.0, 2024-06-15 11:05:04.219
23.0, 73036.26960948344, 61272.50179916642, 76037.70655843097, -187500.02235174447, 108321.49336594265, -187500.02235174447, -166685.20619692878, -187500.02235174447, -0.078, 0.982, 0.096, 192.0, 0.0, 0.0, 0.0, 0.0, 0.0, 0.0, 0.0, 0.0, 0.0, 1.7184675042198644E9, 0.0, 2024-06-15 11:05:04.219
24.0, 72924.48853546244, 60281.425450018105, 75453.96840023618, -187500.02235174447, 108321.67217989829, -187500.02235174447, -166827.25153294226, -187500.02235174447, -0.078, 0.982, 0.096, 192.0, 0.0, 0.0, 0.0, 0.0, 0.0, 0.0, 0.0, 0.0, 0.0, 1.7184675042198744E9, 0.0, 2024-06-15 11:05:04.219
25.0, 72781.45972269293, 59077.85106633318, 74782.45494156539, -187500.02235174447, 109123.31749478787, -187500.02235174447, -166799.62477679548, -187500.02235174447, -0.078, 0.982, 0.096, 192.0, 0.0, 0.0, 0.0, 0.0, 0.0, 0.0, 0.0, 0.0, 0.0, 1.7184675042198837E9, 0.0, 2024-06-15 11:05:04.219
26.0, 72912.79857311232, 60013.62919969907, 75257.16129030721, -187500.02235174447, 109154.67699225867, -187500.02235174447, -166669.02353394314, -187500.02235174447, -0.078, 0.982, 0.096, 192.0, 0.0, 0.0, 0.0, 0.0, 0.0, 0.0, 0.0, 0.0, 0.0, 1.7184675042198925E9, 0.0, 2024-06-15 11:05:04.219
27.0, 73037.47660368403, 61270.37838344317, 76028.1400118041, -187500.02235174447, 108421.91975378034, -187500.02235174447, -166662.92150770684, -187500.02235174447, -0.078, 0.982, 0.096, 192.0, 0.0, 0.0, 0.0, 0.0, 0.0, 0.0, 0.0, 0.0, 0.0, 1.718467504219901E9, 0.0, 2024-06-15 11:05:04.219
28.0, 72934.2115443005, 60550.67456372674, 75622.12057377346, -187500.02235174447, 108289.48566788265, -187500.02235174447, -166791.1758173914, -187500.02235174447, -0.074, 0.98, 0.10400000000000001, 192.0, 253.0, 176.0, 30.0, 160.0, 3.0, 64.0, 0.0, 0.0, 0.0, 1.7184675042199104E9, 0.0, 2024-06-15 11:05:04.219
29.0, 72789.41694371903, 59187.32991067528, 74810.59578783462, -187500.02235174447, 108970.92330109159, -187500.02235174447, -166821.7306520618, -187500.02235174447, -0.074, 0.98, 0.10400000000000001, 192.0, 0.0, 0.0, 0.0, 0.0, 0.0, 0.0, 0.0, 0.0, 0.0, 1.7184675042199194E9, 0.0, 2024-06-15 11:05:04.219
30.0, 72880.32148841876, 59760.89802514292, 75089.99259352597, -187500.02235174447, 109239.81478688894, -187500.02235174447, -166700.2489209472, -187500.02235174447, -0.074, 0.98, 0.10400000000000001, 192.0, 0.0, 0.0, 0.0, 0.0, 0.0, 0.0, 0.0, 0.0, 0.0, 1.7184675042199285E9, 0.0, 2024-06-15 11:05:04.219
31.0, 73034.59322864929, 61212.17444088155, 75951.20530738894, -187500.02235174447, 108474.5581119726, -187500.02235174447, -166692.5375691101, -187500.02235174447, -0.074, 0.98, 0.10400000000000001, 192.0, 0.0, 0.0, 0.0, 0.0, 0.0, 0.0, 0.0, 0.0, 0.0, 1.7184675042199373E9, 0.0, 2024-06-15 11:05:04.219
32.0, 72963.08999813677, 60798.957741136284, 75786.24943330878, -187500.02235174447, 108243.32931558244, -187500.02235174447, -166771.95331715982, -187500.02235174447, -0.074, 0.98, 0.10400000000000001, 192.0, 0.0, 0.0, 0.0, 0.0, 0.0, 0.0, 0.0, 0.0, 0.0, 1.7184675042199464E9, 0.0, 2024-06-15 11:05:04.219
33.0, 72811.09813584067, 59330.98457228954, 74911.49156230588, -187500.02235174447, 108818.90908705106, -187500.02235174447, -166851.77139660972, -187500.02235174447, -0.074, 0.98, 0.10400000000000001, 192.0, 0.0, 0.0, 0.0, 0.0, 0.0, 0.0, 0.0, 0.0, 0.0, 1.7184675042199552E9, 0.0, 2024-06-15 11:05:04.219
34.0, 72840.06599665475, 59479.690728150694, 74982.07837129573, -187500.02235174447, 109335.8602328134, -187500.02235174447, -166717.5044676667, -187500.02235174447, -0.074, 0.98, 0.10400000000000001, 192.0, 0.0, 0.0, 0.0, 0.0, 0.0, 0.0, 0.0, 0.0, 0.0, 1.718467504219964E9, 0.0, 2024-06-15 11:05:04.219
35.0, 73011.81680104934, 61053.27588954877, 75842.86640201407, -187500.02235174447, 108580.81830511312, -187500.02235174447, -166683.35100213898, -187500.02235174447, -0.074, 0.98, 0.10400000000000001, 192.0, 0.0, 0.0, 0.0, 0.0, 0.0, 0.0, 0.0, 0.0, 0.0, 1.718467504219973E9, 0.0, 2024-06-15 11:05:04.219
36.0, 72990.04620194987, 61018.049540287204, 75886.63111765755, -187500.02235174447, 108161.18665470919, -187500.02235174447, -166798.79776225064, -187500.02235174447, -0.074, 0.98, 0.10400000000000001, 192.0, 0.0, 0.0, 0.0, 0.0, 0.0, 0.0, 0.0, 0.0, 0.0, 1.718467504219982E9, 0.0, 2024-06-15 11:05:04.219
37.0, 72809.64527245107, 59556.37956337685, 75046.67491277157, -187500.02235174447, 108646.53243381172, -187500.02235174447, -166871.59739394157, -187500.02235174447, -0.074, 0.98, 0.10400000000000001, 192.0, 0.0, 0.0, 0.0, 0.0, 0.0, 0.0, 0.0, 0.0, 0.0, 1.7184675042199907E9, 0.0, 2024-06-15 11:05:04.219
38.0, 72770.19444348746, 59262.02944064492, 74892.73844870788, -187500.02235174447, 109418.4722803202, -187500.02235174447, -166695.4879993782, -187500.02235174447, -0.074, 0.98, 0.10400000000000001, 192.0, 0.0, 0.0, 0.0, 0.0, 0.0, 0.0, 0.0, 0.0, 0.0, 1.71846750422E9, 0.0, 2024-06-15 11:05:04.220
39.0, 72982.33485011278, 60838.49797707772, 75678.44696980083, -187500.02235174447, 108733.57012672069, -187500.02235174447, -166668.28592637612, -187500.02235174447, -0.068, 0.98, 0.098, 192.0, 253.0, 224.0, 30.0, 160.0, 3.0, 16.0, 0.0, 0.0, 0.0, 1.7184675042200089E9, 0.0, 2024-06-15 11:05:04.220
40.0, 72997.9810712315, 61174.511751474354, 75953.88751672358, -187500.02235174447, 108164.5841198664, -187500.02235174447, -166740.07972956655, -187500.02235174447, -0.068, 0.98, 0.098, 192.0, 0.0, 0.0, 0.0, 0.0, 0.0, 0.0, 0.0, 0.0, 0.0, 1.718467504220018E9, 0.0, 2024-06-15 11:05:04.220
41.0, 72848.85023222568, 59801.89112447395, 75166.10028339628, -187500.02235174447, 108464.56688220106, -187500.02235174447, -166870.09982706307, -187500.02235174447, -0.068, 0.98, 0.098, 192.0, 0.0, 0.0, 0.0, 0.0, 0.0, 0.0, 0.0, 0.0, 0.0, 1.7184675042200267E9, 0.0, 2024-06-15 11:05:04.220
42.0, 72760.18086197149, 59107.69064518102, 74832.99223577885, -187500.02235174447, 109368.0690965735, -187500.02235174447, -166730.75905212868, -187500.02235174447, -0.068, 0.98, 0.098, 192.0, 0.0, 0.0, 0.0, 0.0, 0.0, 0.0, 0.0, 0.0, 0.0, 1.7184675042200356E9, 0.0, 2024-06-15 11:05:04.220
43.0, 72941.09588159274, 60537.442331009195, 75551.51141303914, -187500.02235174447, 108916.98854172094, -187500.02235174447, -166642.84964118598, -187500.02235174447, -0.068, 0.98, 0.098, 192.0, 0.0, 0.0, 0.0, 0.0, 0.0, 0.0, 0.0, 0.0, 0.0, 1.7184675042200449E9, 0.0, 2024-06-15 11:05:04.220
44.0, 73013.89551328367, 61268.634947375656, 76008.0904970277, -187500.02235174447, 108185.70651837665, -187500.02235174447, -166727.02631080465, -187500.02235174447, -0.068, 0.98, 0.098, 192.0, 0.0, 0.0, 0.0, 0.0, 0.0, 0.0, 0.0, 0.0, 0.0, 1.7184675042200556E9, 0.0, 2024-06-15 11:05:04.220
45.0, 72886.37881116616, 60085.75827905635, 75315.81226775792, -187500.02235174447, 108292.27963593956, -187500.02235174447, -166896.5866442426, -187500.02235174447, -0.068, 0.98, 0.098, 192.0, 0.0, 0.0, 0.0, 0.0, 0.0, 0.0, 0.0, 0.0, 0.0, 1.7184675042200649E9, 0.0, 2024-06-15 11:05:04.220
46.0, 72767.71339985293, 59075.23591223192, 74782.23142412084, -187500.02235174447, 109179.6662425597, -187500.02235174447, -166841.10961450453, -187500.02235174447, -0.068, 0.98, 0.098, 192.0, 0.0, 0.0, 0.0, 0.0, 0.0, 0.0, 0.0, 0.0, 0.0, 1.7184675042200737E9, 0.0, 2024-06-15 11:05:04.220
47.0, 72897.1523519936, 60257.46437996202, 75409.77900144804, -187500.02235174447, 109072.66844185215, -187500.02235174447, -166702.104115737, -187500.02235174447, -0.068, 0.98, 0.098, 192.0, 0.0, 0.0, 0.0, 0.0, 0.0, 0.0, 0.0, 0.0, 0.0, 1.718467504220084E9, 0.0, 2024-06-15 11:05:04.220
48.0, 72989.08507693828, 61292.8195348763, 76079.10198916221, -187500.02235174447, 108431.10632075147, -187500.02235174447, -166684.60269982848, -187500.02235174447, -0.068, 0.98, 0.098, 192.0, 0.0, 0.0, 0.0, 0.0, 0.0, 0.0, 0.0, 0.0, 0.0, 1.7184675042201135E9, 0.0, 2024-06-15 11:05:04.220
49.0, 72896.86177931569, 60353.68863984211, 75493.48628443317, -187500.02235174447, 108358.574909994, -187500.02235174447, -166843.1883267389, -187500.02235174447, -0.076, 0.982, 0.098, 192.0, 253.0, 160.0, 30.0, 176.0, 3.0, 16.0, 0.0, 0.0, 0.0, 1.7184675042201233E9, 0.0, 2024-06-15 11:05:04.220
50.0, 72770.55207139875, 59125.706151212, 74736.61151368756, -187500.02235174447, 108967.61524291222, -187500.02235174447, -166896.5866442426, -187500.02235174447, -0.076, 0.982, 0.098, 192.0, 0.0, 0.0, 0.0, 0.0, 0.0, 0.0, 0.0, 0.0, 0.0, 1.7184675042201476E9, 0.0, 2024-06-15 11:05:04.220
51.0, 72878.8015697958, 59980.325100460665, 75207.2051414496, -187500.02235174447, 109068.17574121663, -187500.02235174447, -166767.55002350212, -187500.02235174447, -0.076, 0.982, 0.098, 192.0, 0.0, 0.0, 0.0, 0.0, 0.0, 0.0, 0.0, 0.0, 0.0, 1.7184675042201571E9, 0.0, 2024-06-15 11:05:04.220
52.0, 72990.98497521698, 61281.978938815475, 76058.58308775224, -187500.02235174447, 108498.8097547066, -187500.02235174447, -166688.3801446414, -187500.02235174447, -0.076, 0.982, 0.098, 192.0, 0.0, 0.0, 0.0, 0.0, 0.0, 0.0, 0.0, 0.0, 0.0, 1.718467504220166E9, 0.0, 2024-06-15 11:05:04.220
53.0, 72906.7636021094, 60627.22928848616, 75675.65300174392, -187500.02235174447, 108352.56229073553, -187500.02235174447, -166780.7152009863, -187500.02235174447, -0.076, 0.982, 0.098, 192.0, 0.0, 0.0, 0.0, 0.0, 0.0, 0.0, 0.0, 0.0, 0.0, 1.7184675042201748E9, 0.0, 2024-06-15 11:05:04.220
54.0, 72786.33240298419, 59232.74865540847, 74785.22655787785, -187500.02235174447, 108824.07234002023, -187500.02235174447, -166898.17361809895, -187500.02235174447, -0.076, 0.982, 0.098, 192.0, 0.0, 0.0, 0.0, 0.0, 0.0, 0.0, 0.0, 0.0, 0.0, 1.718467504220184E9, 0.0, 2024-06-15 11:05:04.220
55.0, 72849.00669443687, 59699.81070754656, 75057.00141870993, -187500.02235174447, 109127.98900937903, -187500.02235174447, -166776.624831751, -187500.02235174447, -0.076, 0.982, 0.098, 192.0, 0.0, 0.0, 0.0, 0.0, 0.0, 0.0, 0.0, 0.0, 0.0, 1.718467504220193E9, 0.0, 2024-06-15 11:05:04.220
56.0, 72996.86348400873, 61178.512713731856, 75994.7912090768, -187500.02235174447, 108576.43736319988, -187500.02235174447, -166703.08759249302, -187500.02235174447, -0.076, 0.982, 0.098, 192.0, 0.0, 0.0, 0.0, 0.0, 0.0, 0.0, 0.0, 0.0, 0.0, 1.7184675042202015E9, 0.0, 2024-06-15 11:05:04.220
57.0, 72937.78782341335, 60853.786570285156, 75852.16472770748, -187500.02235174447, 108339.68768592927, -187500.02235174447, -166784.20207312133, -187500.02235174447, -0.076, 0.982, 0.098, 192.0, 0.0, 0.0, 0.0, 0.0, 0.0, 0.0, 0.0, 0.0, 0.0, 1.7184675042202113E9, 0.0, 2024-06-15 11:05:04.220
58.0, 72795.45191472195, 59406.95815169313, 74902.59556801266, -187500.02235174447, 108674.76268705877, -187500.02235174447, -166939.79256627473, -187500.02235174447, -0.076, 0.982, 0.098, 192.0, 0.0, 0.0, 0.0, 0.0, 0.0, 0.0, 0.0, 0.0, 0.0, 1.7184675042202203E9, 0.0, 2024-06-15 11:05:04.220
59.0, 72808.05829859475, 59459.73062035211, 74930.42348985953, -187500.02235174447, 109131.96761989208, -187500.02235174447, -166839.54499239268, -187500.02235174447, -0.076, 0.98, 0.10200000000000001, 192.0, 253.0, 160.0, 30.0, 160.0, 3.0, 48.0, 0.0, 0.0, 0.0, 1.7184675042202296E9, 0.0, 2024-06-15 11:05:04.220
60.0, 72955.98214339998, 60995.608388854074, 75906.5688737117, -187500.02235174447, 108716.33693174565, -187500.02235174447, -166701.27710119213, -187500.02235174447, -0.076, 0.98, 0.10200000000000001, 192.0, 0.0, 0.0, 0.0, 0.0, 0.0, 0.0, 0.0, 0.0, 0.0, 1.7184675042202387E9, 0.0, 2024-06-15 11:05:04.220
61.0, 72918.76648888188, 61014.27209547426, 76001.00499403536, -187500.02235174447, 108463.49399846721, -187500.02235174447, -166706.17213322784, -187500.02235174447, -0.076, 0.98, 0.10200000000000001, 192.0, 0.0, 0.0, 0.0, 0.0, 0.0, 0.0, 0.0, 0.0, 0.0, 1.7184675042202477E9, 0.0, 2024-06-15 11:05:04.220
62.0, 72798.84937987916, 59617.55628795103, 75014.89073215613, -187500.02235174447, 108591.23421802929, -187500.02235174447, -166916.21147587438, -187500.02235174447, -0.076, 0.98, 0.10200000000000001, 192.0, 0.0, 0.0, 0.0, 0.0, 0.0, 0.0, 0.0, 0.0, 0.0, 1.7184675042202568E9, 0.0, 2024-06-15 11:05:04.220
63.0, 72780.76681861482, 59294.662987549666, 74786.23238637834, -187500.02235174447, 109033.12820591072, -187500.02235174447, -166904.87914143552, -187500.02235174447, -0.076, 0.98, 0.10200000000000001, 192.0, 0.0, 0.0, 0.0, 0.0, 0.0, 0.0, 0.0, 0.0, 0.0, 1.718467504220266E9, 0.0, 2024-06-15 11:05:04.220
64.0, 72923.8626866177, 60783.088002573015, 75766.60224993256, -187500.02235174447, 108806.25799968935, -187500.02235174447, -166726.71338638227, -187500.02235174447, -0.076, 0.98, 0.10200000000000001, 192.0, 0.0, 0.0, 0.0, 0.0, 0.0, 0.0, 0.0, 0.0, 0.0, 1.7184675042202752E9, 0.0, 2024-06-15 11:05:04.220
65.0, 72932.78103265537, 61154.99867856487, 76119.55864662632, -187500.02235174447, 108568.81541834061, -187500.02235174447, -166677.51719683615, -187500.02235174447, -0.076, 0.98, 0.10200000000000001, 192.0, 0.0, 0.0, 0.0, 0.0, 0.0, 0.0, 0.0, 0.0, 0.0, 1.718467504220287E9, 0.0, 2024-06-15 11:05:04.220
66.0, 72819.77061268933, 59857.09993327856, 75185.03221094992, -187500.02235174447, 108549.86113904252, -187500.02235174447, -166894.41852503046, -187500.02235174447, -0.076, 0.98, 0.10200000000000001, 192.0, 0.0, 0.0, 0.0, 0.0, 0.0, 0.0, 0.0, 0.0, 0.0, 1.7184675042203124E9, 0.0, 2024-06-15 11:05:04.220
67.0, 72768.71922835341, 59165.738125531454, 74680.48628336028, -187500.02235174447, 108890.12174488566, -187500.02235174447, -166967.03934276575, -187500.02235174447, -0.076, 0.98, 0.10200000000000001, 192.0, 0.0, 0.0, 0.0, 0.0, 0.0, 0.0, 0.0, 0.0, 0.0, 1.7184675042203236E9, 0.0, 2024-06-15 11:05:04.220
68.0, 72882.51195937538, 60507.15571727225, 75588.86117802396, -187500.02235174447, 108829.36970345613, -187500.02235174447, -166764.8007589341, -187500.02235174447, -0.076, 0.98, 0.10200000000000001, 192.0, 0.0, 0.0, 0.0, 0.0, 0.0, 0.0, 0.0, 0.0, 0.0, 1.718467504220359E9, 0.0, 2024-06-15 11:05:04.220
69.0, 72898.94049155003, 61229.944077723514, 76211.491371571, -187500.02235174447, 108702.63531239454, -187500.02235174447, -166618.5756467075, -187500.02235174447, -0.08, 0.978, 0.10400000000000001, 192.0, 253.0, 128.0, 30.0, 144.0, 3.0, 64.0, 0.0, 0.0, 0.0, 1.718467504220369E9, 0.0, 2024-06-15 11:05:04.220
70.0, 72798.44704847898, 60112.84859333618, 75381.52639645654, -187500.02235174447, 108628.11459638055, -187500.02235174447, -166798.86481748402, -187500.02235174447, -0.08, 0.978, 0.10400000000000001, 192.0, 0.0, 0.0, 0.0, 0.0, 0.0, 0.0, 0.0, 0.0, 0.0, 1.7184675042203786E9, 0.0, 2024-06-15 11:05:04.220
71.0, 72765.3217631962, 59139.69834324102, 74598.34362248702, -187500.02235174447, 108757.71001073242, -187500.02235174447, -167017.46487825693, -187500.02235174447, -0.08, 0.978, 0.10400000000000001, 192.0, 0.0, 0.0, 0.0, 0.0, 0.0, 0.0, 0.0, 0.0, 0.0, 1.718467504220404E9, 0.0, 2024-06-15 11:05:04.220
72.0, 72870.21849992496, 60250.535339180875, 75359.55463165697, -187500.02235174447, 108762.04624915675, -187500.02235174447, -166871.06095207465, -187500.02235174447, -0.08, 0.978, 0.10400000000000001, 192.0, 0.0, 0.0, 0.0, 0.0, 0.0, 0.0, 0.0, 0.0, 0.0, 1.7184675042204132E9, 0.0, 2024-06-15 11:05:04.220
73.0, 72904.08139277475, 61269.35020319822, 76234.0889852153, -187500.02235174447, 108702.81412635019, -187500.02235174447, -166645.6436092429, -187500.02235174447, -0.08, 0.978, 0.10400000000000001, 192.0, 0.0, 0.0, 0.0, 0.0, 0.0, 0.0, 0.0, 0.0, 0.0, 1.7184675042204225E9, 0.0, 2024-06-15 11:05:04.220
74.0, 72837.58495302021, 60393.6535589282, 75587.1400937009, -187500.02235174447, 108606.09812809207, -187500.02235174447, -166813.03582346867, -187500.02235174447, -0.08, 0.978, 0.10400000000000001, 192.0, 0.0, 0.0, 0.0, 0.0, 0.0, 0.0, 0.0, 0.0, 0.0, 1.7184675042204332E9, 0.0, 2024-06-15 11:05:04.220
75.0, 72757.25278344784, 59189.27451244289, 74654.40179758094, -187500.02235174447, 108707.7091583859, -187500.02235174447, -167035.5697912657, -187500.02235174447, -0.08, 0.978, 0.10400000000000001, 192.0, 0.0, 0.0, 0.0, 0.0, 0.0, 0.0, 0.0, 0.0, 0.0, 1.718467504220456E9, 0.0, 2024-06-15 11:05:04.220
76.0, 72834.52276402984, 59955.157036203986, 75168.0448851639, -187500.02235174447, 108794.85861001714, -187500.02235174447, -166903.18040885692, -187500.02235174447, -0.08, 0.978, 0.10400000000000001, 192.0, 0.0, 0.0, 0.0, 0.0, 0.0, 0.0, 0.0, 0.0, 0.0, 1.718467504220471E9, 0.0, 2024-06-15 11:05:04.220
77.0, 72908.28352073235, 61226.41250209958, 76186.47976952551, -187500.02235174447, 108691.12416400007, -187500.02235174447, -166694.7950953001, -187500.02235174447, -0.08, 0.978, 0.10400000000000001, 192.0, 0.0, 0.0, 0.0, 0.0, 0.0, 0.0, 0.0, 0.0, 0.0, 1.7184675042204857E9, 0.0, 2024-06-15 11:05:04.220
78.0, 72820.17294408953, 60634.5606606675, 75810.61283476507, -187500.02235174447, 108650.55574781368, -187500.02235174447, -166734.51414519717, -187500.02235174447, -0.08, 0.978, 0.10400000000000001, 192.0, 0.0, 0.0, 0.0, 0.0, 0.0, 0.0, 0.0, 0.0, 0.0, 1.7184675042205021E9, 0.0, 2024-06-15 11:05:04.220
79.0, 72750.48020487788, 59289.45503109158, 74743.65231319098, -187500.02235174447, 108683.36810867407, -187500.02235174447, -166987.17826452, -187500.02235174447, -0.08, 0.978, 0.10400000000000001, 192.0, 0.0, 0.0, 0.0, 0.0, 0.0, 0.0, 0.0, 0.0, 0.0, 1.718467504220512E9, 0.0, 2024-06-15 11:05:04.220
80.0, 72815.23320856491, 59692.47933536522, 74971.70716186847, -187500.02235174447, 108795.99854898437, -187500.02235174447, -166961.2949444407, -187500.02235174447, -0.084, 0.98, 0.10400000000000001, 192.0, 253.0, 96.0, 30.0, 160.0, 3.0, 64.0, 0.0, 0.0, 0.0, 1.7184675042205215E9, 0.0, 2024-06-15 11:05:04.220
81.0, 72876.72285756146, 61111.41277687703, 76078.74436125092, -187500.02235174447, 108694.27575996827, -187500.02235174447, -166729.32854048355, -187500.02235174447, -0.084, 0.98, 0.10400000000000001, 192.0, 0.0, 0.0, 0.0, 0.0, 0.0, 0.0, 0.0, 0.0, 0.0, 1.7184675042205307E9, 0.0, 2024-06-15 11:05:04.220
82.0, 72808.95236837296, 60832.35124735251, 75955.67565628, -187500.02235174447, 108649.393457102, -187500.02235174447, -166737.93396209885, -187500.02235174447, -0.084, 0.98, 0.10400000000000001, 192.0, 0.0, 0.0, 0.0, 0.0, 0.0, 0.0, 0.0, 0.0, 0.0, 1.7184675042205417E9, 0.0, 2024-06-15 11:05:04.220
83.0, 72706.84959970112, 59425.040712957474, 74856.59567792364, -187500.02235174447, 108635.6918377509, -187500.02235174447, -166992.1180000446, -187500.02235174447, -0.084, 0.98, 0.10400000000000001, 192.0, 0.0, 0.0, 0.0, 0.0, 0.0, 0.0, 0.0, 0.0, 0.0, 1.718467504220562E9, 0.0, 2024-06-15 11:05:04.220
84.0, 72744.75815829732, 59434.830777028896, 74794.4578283379, -187500.02235174447, 108787.90721749153, -187500.02235174447, -167020.59412248066, -187500.02235174447, -0.084, 0.98, 0.10400000000000001, 192.0, 0.0, 0.0, 0.0, 0.0, 0.0, 0.0, 0.0, 0.0, 0.0, 1.7184675042205784E9, 0.0, 2024-06-15 11:05:04.220
85.0, 72845.96685719096, 60946.00986790775, 75928.04890013325, -187500.02235174447, 108702.97058856138, -187500.02235174447, -166786.3254888446, -187500.02235174447, -0.084, 0.98, 0.10400000000000001, 192.0, 0.0, 0.0, 0.0, 0.0, 0.0, 0.0, 0.0, 0.0, 0.0, 1.718467504220605E9, 0.0, 2024-06-15 11:05:04.220
86.0, 72791.80858037574, 61023.97275256786, 76103.2642249184, -187500.02235174447, 108697.405004192, -187500.02235174447, -166673.89621423438, -187500.02235174447, -0.084, 0.98, 0.10400000000000001, 192.0, 0.0, 0.0, 0.0, 0.0, 0.0, 0.0, 0.0, 0.0, 0.0, 1.7184675042206209E9, 0.0, 2024-06-15 11:05:04.220
87.0, 72709.68827124695, 59658.21411111524, 75025.39605205013, -187500.02235174447, 108632.89786969399, -187500.02235174447, -166916.72556599684, -187500.02235174447, -0.084, 0.98, 0.10400000000000001, 192.0, 0.0, 0.0, 0.0, 0.0, 0.0, 0.0, 0.0, 0.0, 0.0, 1.7184675042206447E9, 0.0, 2024-06-15 11:05:04.220
88.0, 72725.87093423259, 59271.14895238268, 74676.57472808061, -187500.02235174447, 108795.46210711743, -187500.02235174447, -167010.53583747576, -187500.02235174447, -0.084, 0.98, 0.10400000000000001, 192.0, 0.0, 0.0, 0.0, 0.0, 0.0, 0.0, 0.0, 0.0, 0.0, 1.7184675042206545E9, 0.0, 2024-06-15 11:05:04.220
89.0, 72851.71125551597, 60728.437987379795, 75733.9239995389, -187500.02235174447, 108718.28153351326, -187500.02235174447, -166816.7685647927, -187500.02235174447, -0.084, 0.98, 0.10400000000000001, 192.0, 0.0, 0.0, 0.0, 0.0, 0.0, 0.0, 0.0, 0.0, 0.0, 1.718467504220665E9, 0.0, 2024-06-15 11:05:04.220
90.0, 72831.61703725065, 61164.96755659194, 76201.67895575511, -187500.02235174447, 108712.22421076587, -187500.02235174447, -166659.14406289387, -187500.02235174447, -0.082, 0.98, 0.10200000000000001, 192.0, 253.0, 112.0, 30.0, 160.0, 3.0, 48.0, 0.0, 0.0, 0.0, 1.7184675042206802E9, 0.0, 2024-06-15 11:05:04.220
91.0, 72745.94280075346, 59903.90448616797, 75224.84066782483, -187500.02235174447, 108631.02032315974, -187500.02235174447, -166875.17367305444, -187500.02235174447, -0.082, 0.98, 0.10200000000000001, 192.0, 0.0, 0.0, 0.0, 0.0, 0.0, 0.0, 0.0, 0.0, 0.0, 1.7184675042206895E9, 0.0, 2024-06-15 11:05:04.220
92.0, 72733.02349245829, 59171.124895945184, 74619.7565936752, -187500.02235174447, 108776.66429003052, -187500.02235174447, -167028.55134350676, -187500.02235174447, -0.082, 0.98, 0.10200000000000001, 192.0, 0.0, 0.0, 0.0, 0.0, 0.0, 0.0, 0.0, 0.0, 0.0, 1.7184675042206988E9, 0.0, 2024-06-15 11:05:04.220
93.0, 72834.187487863, 60469.60478658733, 75542.99539840168, -187500.02235174447, 108762.51563579032, -187500.02235174447, -166830.31372193262, -187500.02235174447, -0.082, 0.98, 0.10200000000000001, 192.0, 0.0, 0.0, 0.0, 0.0, 0.0, 0.0, 0.0, 0.0, 0.0, 1.7184675042207084E9, 0.0, 2024-06-15 11:05:04.220
94.0, 72836.13208963061, 61241.67874356255, 76244.16962196465, -187500.02235174447, 108736.9675918779, -187500.02235174447, -166623.1354025764, -187500.02235174447, -0.082, 0.98, 0.10200000000000001, 192.0, 0.0, 0.0, 0.0, 0.0, 0.0, 0.0, 0.0, 0.0, 0.0, 1.718467504220718E9, 0.0, 2024-06-15 11:05:04.220
95.0, 72766.93108879699, 60185.82703898276, 75419.92669343075, -187500.02235174447, 108630.59564001509, -187500.02235174447, -166822.04357648417, -187500.02235174447, -0.082, 0.98, 0.10200000000000001, 192.0, 0.0, 0.0, 0.0, 0.0, 0.0, 0.0, 0.0, 0.0, 0.0, 1.7184675042207272E9, 0.0, 2024-06-15 11:05:04.220
96.0, 72723.1663731535, 59173.11420120171, 74606.21143653529, -187500.02235174447, 108743.24843206984, -187500.02235174447, -167023.1198696041, -187500.02235174447, -0.082, 0.98, 0.10200000000000001, 192.0, 0.0, 0.0, 0.0, 0.0, 0.0, 0.0, 0.0, 0.0, 0.0, 1.7184675042207367E9, 0.0, 2024-06-15 11:05:04.220
97.0, 72818.18363883301, 60218.52764112087, 75336.15235521225, -187500.02235174447, 108783.01218545582, -187500.02235174447, -166873.07260907564, -187500.02235174447, -0.082, 0.98, 0.10200000000000001, 192.0, 0.0, 0.0, 0.0, 0.0, 0.0, 0.0, 0.0, 0.0, 0.0, 1.718467504220746E9, 0.0, 2024-06-15 11:05:04.220
98.0, 72861.85894749868, 61302.49784022544, 76249.42228191165, -187500.02235174447, 108742.15319659153, -187500.02235174447, -166642.84964118598, -187500.02235174447, -0.082, 0.98, 0.10200000000000001, 192.0, 0.0, 0.0, 0.0, 0.0, 0.0, 0.0, 0.0, 0.0, 0.0, 1.718467504220755E9, 0.0, 2024-06-15 11:05:04.220
99.0, 72789.84162686368, 60480.534789625985, 75648.4509287418, -187500.02235174447, 108656.14368392751, -187500.02235174447, -166775.95427941732, -187500.02235174447, -0.082, 0.98, 0.10200000000000001, 192.0, 0.0, 0.0, 0.0, 0.0, 0.0, 0.0, 0.0, 0.0, 0.0, 1.7184675042207642E9, 0.0, 2024-06-15 11:05:04.220
100.0, 72733.33641688066, 59239.78945491189, 74659.96738195031, -187500.02235174447, 108697.96379780339, -187500.02235174447, -167037.40263431106, -187500.02235174447, -0.078, 0.982, 0.10200000000000001, 192.0, 253.0, 144.0, 30.0, 176.0, 3.0, 48.0, 0.0, 0.0, 0.0, 1.7184675042207732E9, 0.0, 2024-06-15 11:05:04.220
101.0, 72807.05247009426, 59946.88689075552, 75136.19364931509, -187500.02235174447, 108783.39216511157, -187500.02235174447, -166950.65551408, -187500.02235174447, -0.078, 0.982, 0.10200000000000001, 192.0, 0.0, 0.0, 0.0, 0.0, 0.0, 0.0, 0.0, 0.0, 0.0, 1.7184675042207828E9, 0.0, 2024-06-15 11:05:04.220
102.0, 72871.38079063664, 61263.96343278449, 76202.8859499557, -187500.02235174447, 108730.75380691933, -187500.02235174447, -166702.3052814371, -187500.02235174447, -0.078, 0.982, 0.10200000000000001, 192.0, 0.0, 0.0, 0.0, 0.0, 0.0, 0.0, 0.0, 0.0, 0.0, 1.718467504220792E9, 0.0, 2024-06-15 11:05:04.220
103.0, 72792.72500189842, 60731.65663858136, 75867.18509998145, -187500.02235174447, 108698.29907397022, -187500.02235174447, -166720.4548979348, -187500.02235174447, -0.078, 0.982, 0.10200000000000001, 192.0, 0.0, 0.0, 0.0, 0.0, 0.0, 0.0, 0.0, 0.0, 0.0, 1.718467504220801E9, 0.0, 2024-06-15 11:05:04.220
104.0, 72721.24412313034, 59355.4597324681, 74752.45890050638, -187500.02235174447, 108667.5430735997, -187500.02235174447, -167010.64759619805, -187500.02235174447, -0.078, 0.982, 0.10200000000000001, 192.0, 0.0, 0.0, 0.0, 0.0, 0.0, 0.0, 0.0, 0.0, 0.0, 1.7184675042208104E9, 0.0, 2024-06-15 11:05:04.220
105.0, 72786.10888553964, 59688.97011148574, 74937.41958587404, -187500.02235174447, 108785.00149071236, -187500.02235174447, -166996.90127335803, -187500.02235174447, -0.078, 0.982, 0.10200000000000001, 192.0, 0.0, 0.0, 0.0, 0.0, 0.0, 0.0, 0.0, 0.0, 0.0, 1.7184675042208192E9, 0.0, 2024-06-15 11:05:04.220
106.0, 72872.4983778594, 61161.81596062374, 76100.33614639475, -187500.02235174447, 108741.48264425786, -187500.02235174447, -166728.52387768315, -187500.02235174447, -0.078, 0.982, 0.10200000000000001, 192.0, 0.0, 0.0, 0.0, 0.0, 0.0, 0.0, 0.0, 0.0, 0.0, 1.7184675042208283E9, 0.0, 2024-06-15 11:05:04.220
107.0, 72811.50046724087, 60953.29653660018, 76041.39459626611, -187500.02235174447, 108729.39035050754, -187500.02235174447, -166680.6464410599, -187500.02235174447, -0.078, 0.982, 0.10200000000000001, 192.0, 0.0, 0.0, 0.0, 0.0, 0.0, 0.0, 0.0, 0.0, 0.0, 1.7184675042208376E9, 0.0, 2024-06-15 11:05:04.220
108.0, 72735.3704256261, 59541.94033645873, 74901.83560870119, -187500.02235174447, 108633.85899470556, -187500.02235174447, -166990.73219188835, -187500.02235174447, -0.078, 0.982, 0.10200000000000001, 192.0, 0.0, 0.0, 0.0, 0.0, 0.0, 0.0, 0.0, 0.0, 0.0, 1.7184675042208488E9, 0.0, 2024-06-15 11:05:04.220
109.0, 72753.31887642371, 59459.66356511874, 74789.27222362426, -187500.02235174447, 108770.8751882166, -187500.02235174447, -167033.6251894981, -187500.02235174447, -0.078, 0.982, 0.10200000000000001, 192.0, 0.0, 0.0, 0.0, 0.0, 0.0, 0.0, 0.0, 0.0, 0.0, 1.718467504220858E9, 0.0, 2024-06-15 11:05:04.220
110.0, 72854.97461020644, 60968.853350741076, 75938.62127526061, -187500.02235174447, 108739.04630411224, -187500.02235174447, -166772.98149740478, -187500.02235174447, -0.078, 0.978, 0.098, 192.0, 253.0, 144.0, 30.0, 144.0, 3.0, 16.0, 0.0, 0.0, 0.0, 1.7184675042208672E9, 0.0, 2024-06-15 11:05:04.220
111.0, 72820.46351676744, 61115.95018100145, 76164.41859774812, -187500.02235174447, 108739.7615599348, -187500.02235174447, -166674.70087703477, -187500.02235174447, -0.078, 0.978, 0.098, 192.0, 0.0, 0.0, 0.0, 0.0, 0.0, 0.0, 0.0, 0.0, 0.0, 1.7184675042208767E9, 0.0, 2024-06-15 11:05:04.220
112.0, 72720.52886730777, 59744.33538250153, 75077.9226515201, -187500.02235174447, 108637.27881160723, -187500.02235174447, -166926.0015399458, -187500.02235174447, -0.078, 0.978, 0.098, 192.0, 0.0, 0.0, 0.0, 0.0, 0.0, 0.0, 0.0, 0.0, 0.0, 1.7184675042209013E9, 0.0, 2024-06-15 11:05:04.220
113.0, 72738.05263496074, 59283.822391488844, 74657.4192830824, -187500.02235174447, 108743.82957742567, -187500.02235174447, -167072.85250101716, -187500.02235174447, -0.078, 0.978, 0.098, 192.0, 0.0, 0.0, 0.0, 0.0, 0.0, 0.0, 0.0, 0.0, 0.0, 1.71846750422091E9, 0.0, 2024-06-15 11:05:04.220
114.0, 72855.98043870693, 60729.9355542583, 75728.78309831419, -187500.02235174447, 108713.67707415546, -187500.02235174447, -166875.91128062145, -187500.02235174447, -0.078, 0.978, 0.098, 192.0, 0.0, 0.0, 0.0, 0.0, 0.0, 0.0, 0.0, 0.0, 0.0, 1.7184675042209191E9, 0.0, 2024-06-15 11:05:04.220
115.0, 72826.09615637019, 61243.39982788561, 76266.16373850868, -187500.02235174447, 108751.85385368513, -187500.02235174447, -166691.0847057205, -187500.02235174447, -0.078, 0.978, 0.098, 192.0, 0.0, 0.0, 0.0, 0.0, 0.0, 0.0, 0.0, 0.0, 0.0, 1.718467504220928E9, 0.0, 2024-06-15 11:05:04.220
116.0, 72734.27519014779, 60018.83715615716, 75293.88520644727, -187500.02235174447, 108638.97754418584, -187500.02235174447, -166909.93063568242, -187500.02235174447, -0.078, 0.978, 0.098, 192.0, 0.0, 0.0, 0.0, 0.0, 0.0, 0.0, 0.0, 0.0, 0.0, 1.7184675042209368E9, 0.0, 2024-06-15 11:05:04.220
117.0, 72724.663940032, 59209.078158030294, 74602.63515742245, -187500.02235174447, 108683.7033848409, -187500.02235174447, -167121.31108299628, -187500.02235174447, -0.078, 0.978, 0.098, 192.0, 0.0, 0.0, 0.0, 0.0, 0.0, 0.0, 0.0, 0.0, 0.0, 1.7184675042209456E9, 0.0, 2024-06-15 11:05:04.220
118.0, 72833.06990064024, 60464.91092025172, 75527.75150868316, -187500.02235174447, 108709.3631874756, -187500.02235174447, -166934.24933364982, -187500.02235174447, -0.078, 0.978, 0.098, 192.0, 0.0, 0.0, 0.0, 0.0, 0.0, 0.0, 0.0, 0.0, 0.0, 1.7184675042209544E9, 0.0, 2024-06-15 11:05:04.220
119.0, 72831.32646457273, 61307.45992749452, 76321.05962289091, -187500.02235174447, 108790.61177857063, -187500.02235174447, -166675.10320843497, -187500.02235174447, -0.078, 0.978, 0.098, 192.0, 0.0, 0.0, 0.0, 0.0, 0.0, 0.0, 0.0, 0.0, 0.0, 1.7184675042209635E9, 0.0, 2024-06-15 11:05:04.220
120.0, 72736.33155063767, 60276.1280865822, 75517.00031960015, -187500.02235174447, 108700.19897224891, -187500.02235174447, -166826.29040793068, -187500.02235174447, -0.078, 0.978, 0.098, 192.0, 0.0, 0.0, 0.0, 0.0, 0.0, 0.0, 0.0, 0.0, 0.0, 1.7184675042209723E9, 0.0, 2024-06-15 11:05:04.220
121.0, 72701.97691940986, 59195.868277057205, 74599.2600440097, -187500.02235174447, 108674.6509283365, -187500.02235174447, -167095.40541117257, -187500.02235174447, -0.07200000000000001, 0.98, 0.108, 192.0, 253.0, 192.0, 30.0, 160.0, 3.0, 96.0, 0.0, 0.0, 0.0, 1.7184675043616803E9, 0.0, 2024-06-15 11:05:04.361
122.0, 72814.9873393759, 60193.94072222003, 75306.96097695363, -187500.02235174447, 108710.83840260965, -187500.02235174447, -166974.6165841361, -187500.02235174447, -0.07200000000000001, 0.98, 0.108, 192.0, 0.0, 0.0, 0.0, 0.0, 0.0, 0.0, 0.0, 0.0, 0.0, 1.7184675043617227E9, 0.0, 2024-06-15 11:05:04.361
123.0, 72865.59168882271, 61340.696971499565, 76313.90706466521, -187500.02235174447, 108782.4757435889, -187500.02235174447, -166705.32276693854, -187500.02235174447, -0.07200000000000001, 0.98, 0.108, 192.0, 0.0, 0.0, 0.0, 0.0, 0.0, 0.0, 0.0, 0.0, 0.0, 1.718467504361738E9, 0.0, 2024-06-15 11:05:04.361
124.0, 72787.15941752904, 60553.53558701702, 75755.53813642719, -187500.02235174447, 108735.40296976603, -187500.02235174447, -166799.11068667303, -187500.02235174447, -0.07200000000000001, 0.98, 0.108, 192.0, 0.0, 0.0, 0.0, 0.0, 0.0, 0.0, 0.0, 0.0, 0.0, 1.7184675043617477E9, 0.0, 2024-06-15 11:05:04.361
125.0, 72736.0186262153, 59252.8875771627, 74674.80894026863, -187500.02235174447, 108655.02609670474, -187500.02235174447, -167102.31210020927, -187500.02235174447, -0.07200000000000001, 0.98, 0.108, 192.0, 0.0, 0.0, 0.0, 0.0, 0.0, 0.0, 0.0, 0.0, 0.0, 1.7184675043617575E9, 0.0, 2024-06-15 11:05:04.361
126.0, 72797.88825486759, 59883.653805691465, 75091.49016040447, -187500.02235174447, 108695.79567859122, -187500.02235174447, -167059.17323341052, -187500.02235174447, -0.07200000000000001, 0.98, 0.108, 192.0, 0.0, 0.0, 0.0, 0.0, 0.0, 0.0, 0.0, 0.0, 0.0, 1.7184675043617673E9, 0.0, 2024-06-15 11:05:04.361
127.0, 72834.12043262964, 61256.31913618078, 76241.86739228576, -187500.02235174447, 108768.8188277267, -187500.02235174447, -166757.33527628606, -187500.02235174447, -0.07200000000000001, 0.98, 0.108, 192.0, 0.0, 0.0, 0.0, 0.0, 0.0, 0.0, 0.0, 0.0, 0.0, 1.7184675043617766E9, 0.0, 2024-06-15 11:05:04.361
128.0, 72760.94082128297, 60787.08896483052, 75946.06440616422, -187500.02235174447, 108784.50975233433, -187500.02235174447, -166752.39554076144, -187500.02235174447, -0.07200000000000001, 0.98, 0.108, 192.0, 0.0, 0.0, 0.0, 0.0, 0.0, 0.0, 0.0, 0.0, 0.0, 1.718467504361786E9, 0.0, 2024-06-15 11:05:04.361
129.0, 72709.30829159121, 59398.44213705566, 74775.1012176396, -187500.02235174447, 108647.65002103448, -187500.02235174447, -167083.02254474434, -187500.02235174447, -0.07200000000000001, 0.98, 0.108, 192.0, 0.0, 0.0, 0.0, 0.0, 0.0, 0.0, 0.0, 0.0, 0.0, 1.7184675043617957E9, 0.0, 2024-06-15 11:05:04.361
130.0, 72772.74254235537, 59650.05572438905, 74899.44397204446, -187500.02235174447, 108694.70044311292, -187500.02235174447, -167117.3995277166, -187500.02235174447, -0.07200000000000001, 0.98, 0.108, 192.0, 0.0, 0.0, 0.0, 0.0, 0.0, 0.0, 0.0, 0.0, 0.0, 1.7184675043618047E9, 0.0, 2024-06-15 11:05:04.361
131.0, 72847.01738918036, 61140.24652722437, 76122.75494608343, -187500.02235174447, 108764.16966488, -187500.02235174447, -166806.15148617644, -187500.02235174447, -0.07, 0.984, 0.11, 192.0, 253.0, 208.0, 30.0, 192.0, 3.0, 112.0, 0.0, 0.0, 0.0, 1.718467504361814E9, 0.0, 2024-06-15 11:05:04.361
132.0, 72797.01653683383, 61005.93489479243, 76117.50228613643, -187500.02235174447, 108811.84593580317, -187500.02235174447, -166749.62392444897, -187500.02235174447, -0.07, 0.984, 0.11, 192.0, 0.0, 0.0, 0.0, 0.0, 0.0, 0.0, 0.0, 0.0, 0.0, 1.7184675043618228E9, 0.0, 2024-06-15 11:05:04.361
133.0, 72721.48999231934, 59581.74879333363, 74946.29322842279, -187500.02235174447, 108657.32832638363, -187500.02235174447, -167046.1198146486, -187500.02235174447, -0.07, 0.984, 0.11, 192.0, 0.0, 0.0, 0.0, 0.0, 0.0, 0.0, 0.0, 0.0, 0.0, 1.718467504361832E9, 0.0, 2024-06-15 11:05:04.361
134.0, 72754.81644330222, 59416.167070408716, 74750.17902257193, -187500.02235174447, 108695.59451289113, -187500.02235174447, -167138.87955413814, -187500.02235174447, -0.07, 0.984, 0.11, 192.0, 0.0, 0.0, 0.0, 0.0, 0.0, 0.0, 0.0, 0.0, 0.0, 1.7184675043618414E9, 0.0, 2024-06-15 11:05:04.361
135.0, 72859.51201433087, 60936.57743174761, 75945.05857766373, -187500.02235174447, 108743.53900474776, -187500.02235174447, -166864.5342426937, -187500.02235174447, -0.07, 0.984, 0.11, 192.0, 0.0, 0.0, 0.0, 0.0, 0.0, 0.0, 0.0, 0.0, 0.0, 1.7184675043618507E9, 0.0, 2024-06-15 11:05:04.361
136.0, 72822.60928423516, 61180.747888177386, 76252.59622962431, -187500.02235174447, 108844.09950305219, -187500.02235174447, -166722.04187179112, -187500.02235174447, -0.07, 0.984, 0.11, 192.0, 0.0, 0.0, 0.0, 0.0, 0.0, 0.0, 0.0, 0.0, 0.0, 1.7184675043618605E9, 0.0, 2024-06-15 11:05:04.361
137.0, 72751.91071652302, 59853.233081487786, 75138.92056213864, -187500.02235174447, 108665.71023055438, -187500.02235174447, -167012.88277064357, -187500.02235174447, -0.07, 0.984, 0.11, 192.0, 0.0, 0.0, 0.0, 0.0, 0.0, 0.0, 0.0, 0.0, 0.0, 1.7184675043618696E9, 0.0, 2024-06-15 11:05:04.361
138.0, 72760.62789686059, 59310.48802262402, 74643.56120152012, -187500.02235174447, 108660.59168107412, -187500.02235174447, -167196.5694065773, -187500.02235174447, -0.07, 0.984, 0.11, 192.0, 0.0, 0.0, 0.0, 0.0, 0.0, 0.0, 0.0, 0.0, 0.0, 1.718467504361879E9, 0.0, 2024-06-15 11:05:04.361
139.0, 72855.71221777347, 60734.27179268263, 75744.49637466627, -187500.02235174447, 108717.29805675722, -187500.02235174447, -166953.91886877047, -187500.02235174447, -0.07, 0.984, 0.11, 192.0, 0.0, 0.0, 0.0, 0.0, 0.0, 0.0, 0.0, 0.0, 0.0, 1.7184675043618896E9, 0.0, 2024-06-15 11:05:04.361
140.0, 72823.57040924673, 61303.570723959296, 76345.60183830284, -187500.02235174447, 108861.06447709377, -187500.02235174447, -166725.23817124823, -187500.02235174447, -0.07, 0.984, 0.11, 192.0, 0.0, 0.0, 0.0, 0.0, 0.0, 0.0, 0.0, 0.0, 0.0, 1.7184675043618991E9, 0.0, 2024-06-15 11:05:04.361
141.0, 72738.47731810539, 60090.11686922513, 75367.44479744969, -187500.02235174447, 108718.28153351326, -187500.02235174447, -166938.38440637404, -187500.02235174447, -0.062, 0.976, 0.112, 192.0, 254.0, 16.0, 30.0, 128.0, 3.0, 128.0, 0.0, 0.0, 0.0, 1.7184675043619084E9, 0.0, 2024-06-15 11:05:04.361
142.0, 72716.93023645047, 59203.46787017201, 74602.74691614472, -187500.02235174447, 108676.68493708194, -187500.02235174447, -167157.16328110258, -187500.02235174447, -0.062, 0.976, 0.112, 192.0, 0.0, 0.0, 0.0, 0.0, 0.0, 0.0, 0.0, 0.0, 0.0, 1.718467504361918E9, 0.0, 2024-06-15 11:05:04.361
143.0, 72813.10979284166, 60415.69237896114, 75506.74086889517, -187500.02235174447, 108726.08229232817, -187500.02235174447, -166970.3026974562, -187500.02235174447, -0.062, 0.976, 0.112, 192.0, 0.0, 0.0, 0.0, 0.0, 0.0, 0.0, 0.0, 0.0, 0.0, 1.7184675043619282E9, 0.0, 2024-06-15 11:05:04.361
144.0, 72810.3828800181, 61325.2742678254, 76361.62803907729, -187500.02235174447, 108876.71069821248, -187500.02235174447, -166699.66777559137, -187500.02235174447, -0.062, 0.976, 0.112, 192.0, 0.0, 0.0, 0.0, 0.0, 0.0, 0.0, 0.0, 0.0, 0.0, 1.7184675043619375E9, 0.0, 2024-06-15 11:05:04.361
145.0, 72727.54731506674, 60328.00648546297, 75564.72129401223, -187500.02235174447, 108758.08999038817, -187500.02235174447, -166864.31072524915, -187500.02235174447, -0.062, 0.976, 0.112, 192.0, 0.0, 0.0, 0.0, 0.0, 0.0, 0.0, 0.0, 0.0, 0.0, 1.7184675043619468E9, 0.0, 2024-06-15 11:05:04.361
146.0, 72697.68538447445, 59180.31146291632, 74574.87429080896, -187500.02235174447, 108637.25645986277, -187500.02235174447, -167162.19242360504, -187500.02235174447, -0.062, 0.976, 0.112, 192.0, 0.0, 0.0, 0.0, 0.0, 0.0, 0.0, 0.0, 0.0, 0.0, 1.7184675043619568E9, 0.0, 2024-06-15 11:05:04.361
147.0, 72789.75221988586, 60127.8913173546, 75259.37411300828, -187500.02235174447, 108697.44970768092, -187500.02235174447, -167041.60476226866, -187500.02235174447, -0.062, 0.976, 0.112, 192.0, 0.0, 0.0, 0.0, 0.0, 0.0, 0.0, 0.0, 0.0, 0.0, 1.7184675043619716E9, 0.0, 2024-06-15 11:05:04.361
148.0, 72830.00771164987, 61335.06433189683, 76326.58050377137, -187500.02235174447, 108855.18596830202, -187500.02235174447, -166734.55884868608, -187500.02235174447, -0.062, 0.976, 0.112, 192.0, 0.0, 0.0, 0.0, 0.0, 0.0, 0.0, 0.0, 0.0, 0.0, 1.718467504361992E9, 0.0, 2024-06-15 11:05:04.361
149.0, 72758.59388811515, 60618.266238959586, 75784.4389420079, -187500.02235174447, 108798.14431645208, -187500.02235174447, -166825.4186898969, -187500.02235174447, -0.062, 0.976, 0.112, 192.0, 0.0, 0.0, 0.0, 0.0, 0.0, 0.0, 0.0, 0.0, 0.0, 1.7184675043620217E9, 0.0, 2024-06-15 11:05:04.362
150.0, 72715.90205620552, 59290.036176447415, 74649.08208240058, -187500.02235174447, 108626.16999461294, -187500.02235174447, -167147.99906587592, -187500.02235174447, -0.062, 0.976, 0.112, 192.0, 0.0, 0.0, 0.0, 0.0, 0.0, 0.0, 0.0, 0.0, 0.0, 1.718467504362046E9, 0.0, 2024-06-15 11:05:04.362
151.0, 72795.29545251078, 59862.64316590347, 75043.70213075902, -187500.02235174447, 108668.68301256694, -187500.02235174447, -167115.32081548224, -187500.02235174447, -0.07, 0.984, 0.108, 192.0, 253.0, 208.0, 30.0, 192.0, 3.0, 96.0, 0.0, 0.0, 0.0, 1.7184675043620708E9, 0.0, 2024-06-15 11:05:04.362
152.0, 72834.9921506634, 61274.82638058977, 76272.1540060227, -187500.02235174447, 108856.75059041388, -187500.02235174447, -166741.53259295615, -187500.02235174447, -0.07, 0.984, 0.108, 192.0, 0.0, 0.0, 0.0, 0.0, 0.0, 0.0, 0.0, 0.0, 0.0, 1.7184675043620975E9, 0.0, 2024-06-15 11:05:04.362
153.0, 72784.43250470549, 60873.836085061565, 76000.87088356864, -187500.02235174447, 108876.53188425684, -187500.02235174447, -166736.01171207568, -187500.02235174447, -0.07, 0.984, 0.108, 192.0, 0.0, 0.0, 0.0, 0.0, 0.0, 0.0, 0.0, 0.0, 0.0, 1.7184675043621175E9, 0.0, 2024-06-15 11:05:04.362
154.0, 72736.24214365985, 59459.39534418528, 74777.15757812948, -187500.02235174447, 108635.15539588398, -187500.02235174447, -167111.8339433472, -187500.02235174447, -0.07, 0.984, 0.108, 192.0, 0.0, 0.0, 0.0, 0.0, 0.0, 0.0, 0.0, 0.0, 0.0, 1.7184675048319423E9, 0.0, 2024-06-15 11:05:04.831
155.0, 72777.70462962445, 59620.88669787487, 74846.17976500747, -187500.02235174447, 108651.96390771437, -187500.02235174447, -167159.71137997048, -187500.02235174447, -0.07, 0.984, 0.108, 192.0, 0.0, 0.0, 0.0, 0.0, 0.0, 0.0, 0.0, 0.0, 0.0, 1.7184675048321128E9, 0.0, 2024-06-15 11:05:04.832
156.0, 72838.16609837605, 61124.600306105654, 76122.57613212778, -187500.02235174447, 108813.74583408187, -187500.02235174447, -166816.00860548124, -187500.02235174447, -0.07, 0.984, 0.108, 192.0, 0.0, 0.0, 0.0, 0.0, 0.0, 0.0, 0.0, 0.0, 0.0, 1.718467504832127E9, 0.0, 2024-06-15 11:05:04.832
157.0, 72776.6764493795, 61051.3089360367, 76177.91905139912, -187500.02235174447, 108920.22954466696, -187500.02235174447, -166699.33249942452, -187500.02235174447, -0.07, 0.984, 0.108, 192.0, 0.0, 0.0, 0.0, 0.0, 0.0, 0.0, 0.0, 0.0, 0.0, 1.7184675048321388E9, 0.0, 2024-06-15 11:05:04.832
158.0, 72724.41807084299, 59643.23844233018, 74948.50605112387, -187500.02235174447, 108668.92888175594, -187500.02235174447, -167039.59310526768, -187500.02235174447, -0.07, 0.984, 0.108, 192.0, 0.0, 0.0, 0.0, 0.0, 0.0, 0.0, 0.0, 0.0, 0.0, 1.7184675048321495E9, 0.0, 2024-06-15 11:05:04.832
159.0, 72753.18476595698, 59410.40032033924, 74690.76808580973, -187500.02235174447, 108639.17870988593, -187500.02235174447, -167180.0067639359, -187500.02235174447, -0.07, 0.984, 0.108, 192.0, 0.0, 0.0, 0.0, 0.0, 0.0, 0.0, 0.0, 0.0, 0.0, 1.71846750483216E9, 0.0, 2024-06-15 11:05:04.832
160.0, 72823.72687145793, 60929.80485317765, 75935.08969963666, -187500.02235174447, 108782.0287086998, -187500.02235174447, -166863.50606244875, -187500.02235174447, -0.07, 0.984, 0.108, 192.0, 0.0, 0.0, 0.0, 0.0, 0.0, 0.0, 0.0, 0.0, 0.0, 1.7184675048321705E9, 0.0, 2024-06-15 11:05:04.832
161.0, 72796.70361241145, 61227.7536067669, 76307.91679715119, -187500.02235174447, 108951.20906248201, -187500.02235174447, -166680.78055152664, -187500.02235174447, -0.07, 0.984, 0.108, 192.0, 0.0, 0.0, 0.0, 0.0, 0.0, 0.0, 0.0, 0.0, 0.0, 1.7184675048321812E9, 0.0, 2024-06-15 11:05:04.832
162.0, 72728.32962612268, 59888.92881738291, 75175.68918176761, -187500.02235174447, 108739.4709872569, -187500.02235174447, -166951.79545304723, -187500.02235174447, -0.07, 0.98, 0.108, 192.0, 253.0, 208.0, 30.0, 160.0, 3.0, 96.0, 0.0, 0.0, 0.0, 1.7184675048321917E9, 0.0, 2024-06-15 11:05:04.832
163.0, 72731.70473953543, 59264.15285636817, 74584.44083743583, -187500.02235174447, 108641.97267794285, -187500.02235174447, -167172.87655745467, -187500.02235174447, -0.07, 0.98, 0.108, 192.0, 0.0, 0.0, 0.0, 0.0, 0.0, 0.0, 0.0, 0.0, 0.0, 1.7184675048322039E9, 0.0, 2024-06-15 11:05:04.832
164.0, 72837.71906348695, 60688.74128922717, 75703.63738580197, -187500.02235174447, 108721.34372250363, -187500.02235174447, -166951.03549373575, -187500.02235174447, -0.07, 0.98, 0.108, 192.0, 0.0, 0.0, 0.0, 0.0, 0.0, 0.0, 0.0, 0.0, 0.0, 1.7184675048322153E9, 0.0, 2024-06-15 11:05:04.832
165.0, 72822.16224934605, 61362.24405315448, 76401.45884769665, -187500.02235174447, 108939.20617570952, -187500.02235174447, -166699.42190640236, -187500.02235174447, -0.07, 0.98, 0.108, 192.0, 0.0, 0.0, 0.0, 0.0, 0.0, 0.0, 0.0, 0.0, 0.0, 1.7184675048322327E9, 0.0, 2024-06-15 11:05:04.832
166.0, 72735.169259926, 60175.791105722325, 75431.16962089177, -187500.02235174447, 108797.20554318494, -187500.02235174447, -166883.39911501398, -187500.02235174447, -0.07, 0.98, 0.108, 192.0, 0.0, 0.0, 0.0, 0.0, 0.0, 0.0, 0.0, 0.0, 0.0, 1.718467504832261E9, 0.0, 2024-06-15 11:05:04.832
167.0, 72728.10610867813, 59218.734111634985, 74555.092996966, -187500.02235174447, 108638.99989593029, -187500.02235174447, -167164.87463293967, -187500.02235174447, -0.07, 0.98, 0.108, 192.0, 0.0, 0.0, 0.0, 0.0, 0.0, 0.0, 0.0, 0.0, 0.0, 1.7184675048322794E9, 0.0, 2024-06-15 11:05:04.832
168.0, 72823.50335401337, 60416.1617655947, 75471.13453997787, -187500.02235174447, 108706.79273686324, -187500.02235174447, -166986.39595346403, -187500.02235174447, -0.07, 0.98, 0.108, 192.0, 0.0, 0.0, 0.0, 0.0, 0.0, 0.0, 0.0, 0.0, 0.0, 1.7184675048322947E9, 0.0, 2024-06-15 11:05:04.832
169.0, 72821.98343539042, 61398.72210010554, 76426.62691195332, -187500.02235174447, 108957.71342011851, -187500.02235174447, -166659.7922634831, -187500.02235174447, -0.07, 0.98, 0.108, 192.0, 0.0, 0.0, 0.0, 0.0, 0.0, 0.0, 0.0, 0.0, 0.0, 1.7184675048323104E9, 0.0, 2024-06-15 11:05:04.832
170.0, 72756.0234375028, 60433.6631815032, 75647.26628628568, -187500.02235174447, 108858.80695090377, -187500.02235174447, -166809.59365482256, -187500.02235174447, -0.07, 0.98, 0.108, 192.0, 0.0, 0.0, 0.0, 0.0, 0.0, 0.0, 0.0, 0.0, 0.0, 1.7184675048323338E9, 0.0, 2024-06-15 11:05:04.832
171.0, 72735.32572213719, 59206.373596951205, 74559.6527528349, -187500.02235174447, 108623.53248876722, -187500.02235174447, -167169.18851961955, -187500.02235174447, -0.07, 0.98, 0.108, 192.0, 0.0, 0.0, 0.0, 0.0, 0.0, 0.0, 0.0, 0.0, 0.0, 1.7184675048323517E9, 0.0, 2024-06-15 11:05:04.832
172.0, 72822.40811853507, 60102.63384612011, 75227.67933937066, -187500.02235174447, 108653.52852982623, -187500.02235174447, -167084.09542847818, -187500.02235174447, -0.074, 0.984, 0.114, 192.0, 253.0, 176.0, 30.0, 192.0, 3.0, 144.0, 0.0, 0.0, 0.0, 1.7184675048323689E9, 0.0, 2024-06-15 11:05:04.832
173.0, 72842.43528156701, 61383.20998945356, 76403.49285644208, -187500.02235174447, 108917.0108934654, -187500.02235174447, -166713.5482088981, -187500.02235174447, -0.074, 0.984, 0.114, 192.0, 0.0, 0.0, 0.0, 0.0, 0.0, 0.0, 0.0, 0.0, 0.0, 1.7184675048323932E9, 0.0, 2024-06-15 11:05:04.832
174.0, 72771.55789989924, 60696.98908293118, 75886.13937927954, -187500.02235174447, 108904.69508227053, -187500.02235174447, -166774.79198870563, -187500.02235174447, -0.074, 0.984, 0.114, 192.0, 0.0, 0.0, 0.0, 0.0, 0.0, 0.0, 0.0, 0.0, 0.0, 1.7184675048324041E9, 0.0, 2024-06-15 11:05:04.832
175.0, 72736.89034424906, 59305.21301093257, 74649.39500682295, -187500.02235174447, 108627.60050625808, -187500.02235174447, -167165.0981503842, -187500.02235174447, -0.074, 0.984, 0.114, 192.0, 0.0, 0.0, 0.0, 0.0, 0.0, 0.0, 0.0, 0.0, 0.0, 1.7184675048324149E9, 0.0, 2024-06-15 11:05:04.832
176.0, 72809.95819687346, 59834.47996788978, 74986.99575507591, -187500.02235174447, 108612.51307875075, -187500.02235174447, -167183.22541513748, -187500.02235174447, -0.074, 0.984, 0.114, 192.0, 0.0, 0.0, 0.0, 0.0, 0.0, 0.0, 0.0, 0.0, 0.0, 1.7184675048324258E9, 0.0, 2024-06-15 11:05:04.832
177.0, 72838.85900245416, 61336.070160397314, 76320.34436706833, -187500.02235174447, 108870.02752662034, -187500.02235174447, -166804.74332627575, -187500.02235174447, -0.074, 0.984, 0.114, 192.0, 0.0, 0.0, 0.0, 0.0, 0.0, 0.0, 0.0, 0.0, 0.0, 1.71846750483244E9, 0.0, 2024-06-15 11:05:04.832
178.0, 72751.95542001193, 60961.61138553756, 76112.719012823, -187500.02235174447, 108968.06227780132, -187500.02235174447, -166737.68809290984, -187500.02235174447, -0.074, 0.984, 0.114, 192.0, 0.0, 0.0, 0.0, 0.0, 0.0, 0.0, 0.0, 0.0, 0.0, 1.718467504832456E9, 0.0, 2024-06-15 11:05:04.832
179.0, 72690.91280590449, 59470.21358850165, 74794.21195914889, -187500.02235174447, 108674.58387310314, -187500.02235174447, -167111.7445363694, -187500.02235174447, -0.074, 0.984, 0.114, 192.0, 0.0, 0.0, 0.0, 0.0, 0.0, 0.0, 0.0, 0.0, 0.0, 1.7184675048325067E9, 0.0, 2024-06-15 11:05:04.832
180.0, 72740.33251289517, 59566.48255187066, 74783.59488053262, -187500.02235174447, 108632.60729701606, -187500.02235174447, -167179.9173569581, -187500.02235174447, -0.074, 0.984, 0.114, 192.0, 0.0, 0.0, 0.0, 0.0, 0.0, 0.0, 0.0, 0.0, 0.0, 1.7184675048325343E9, 0.0, 2024-06-15 11:05:04.832
181.0, 72800.59281594669, 61160.40780072306, 76146.31368473932, -187500.02235174447, 108857.10821832517, -187500.02235174447, -166795.869683727, -187500.02235174447, -0.074, 0.984, 0.114, 192.0, 0.0, 0.0, 0.0, 0.0, 0.0, 0.0, 0.0, 0.0, 0.0, 1.7184675048325443E9, 0.0, 2024-06-15 11:05:04.832
182.0, 72756.06814099172, 61167.64976592657, 76257.46890991557, -187500.02235174447, 109011.46936553353, -187500.02235174447, -166670.52110082164, -187500.02235174447, -0.07200000000000001, 0.982, 0.116, 192.0, 253.0, 192.0, 30.0, 176.0, 3.0, 160.0, 0.0, 0.0, 0.0, 1.7184675048325834E9, 0.0, 2024-06-15 11:05:04.832
183.0, 72686.77773318026, 59704.16929771534, 74976.28926948181, -187500.02235174447, 108732.72076043139, -187500.02235174447, -167011.00522410934, -187500.02235174447, -0.07200000000000001, 0.982, 0.116, 192.0, 0.0, 0.0, 0.0, 0.0, 0.0, 0.0, 0.0, 0.0, 0.0, 1.7184675048325944E9, 0.0, 2024-06-15 11:05:04.832
184.0, 72724.73099526537, 59369.250758797025, 74600.7576108882, -187500.02235174447, 108621.96786665534, -187500.02235174447, -167187.5616535618, -187500.02235174447, -0.07200000000000001, 0.982, 0.116, 192.0, 0.0, 0.0, 0.0, 0.0, 0.0, 0.0, 0.0, 0.0, 0.0, 1.7184675048326209E9, 0.0, 2024-06-15 11:05:04.832
185.0, 72830.81237445025, 60967.936929218406, 75918.57176048419, -187500.02235174447, 108776.61958654161, -187500.02235174447, -166905.52734202472, -187500.02235174447, -0.07200000000000001, 0.982, 0.116, 192.0, 0.0, 0.0, 0.0, 0.0, 0.0, 0.0, 0.0, 0.0, 0.0, 1.7184675048326533E9, 0.0, 2024-06-15 11:05:04.832
186.0, 72782.17497851551, 61342.440407567075, 76400.47537094062, -187500.02235174447, 109023.27108660592, -187500.02235174447, -166672.2868886336, -187500.02235174447, -0.07200000000000001, 0.982, 0.116, 192.0, 0.0, 0.0, 0.0, 0.0, 0.0, 0.0, 0.0, 0.0, 0.0, 1.7184675048326697E9, 0.0, 2024-06-15 11:05:04.832
187.0, 72710.04589915823, 59955.49231237082, 75205.01467049298, -187500.02235174447, 108779.88294123209, -187500.02235174447, -166969.0062962778, -187500.02235174447, -0.07200000000000001, 0.982, 0.116, 192.0, 0.0, 0.0, 0.0, 0.0, 0.0, 0.0, 0.0, 0.0, 0.0, 1.71846750483269E9, 0.0, 2024-06-15 11:05:04.832
188.0, 72721.24412313034, 59229.5300042069, 74502.94637715178, -187500.02235174447, 108588.32849125011, -187500.02235174447, -167255.19803228357, -187500.02235174447, -0.07200000000000001, 0.982, 0.116, 192.0, 0.0, 0.0, 0.0, 0.0, 0.0, 0.0, 0.0, 0.0, 0.0, 1.7184675048327086E9, 0.0, 2024-06-15 11:05:04.832
189.0, 72812.14866783007, 60687.35548107094, 75686.65006001593, -187500.02235174447, 108728.80920515172, -187500.02235174447, -166980.49509292783, -187500.02235174447, -0.07200000000000001, 0.982, 0.116, 192.0, 0.0, 0.0, 0.0, 0.0, 0.0, 0.0, 0.0, 0.0, 0.0, 1.7184675048327303E9, 0.0, 2024-06-15 11:05:04.832
190.0, 72796.2789292668, 61451.06988561987, 76462.34499959291, -187500.02235174447, 108997.16424908213, -187500.02235174447, -166702.1488192259, -187500.02235174447, -0.07200000000000001, 0.982, 0.116, 192.0, 0.0, 0.0, 0.0, 0.0, 0.0, 0.0, 0.0, 0.0, 0.0, 1.7184675048327632E9, 0.0, 2024-06-15 11:05:04.832
191.0, 72712.05755615921, 60246.266155989906, 75451.62146706837, -187500.02235174447, 108813.74583408187, -187500.02235174447, -166940.28430465274, -187500.02235174447, -0.07200000000000001, 0.982, 0.116, 192.0, 0.0, 0.0, 0.0, 0.0, 0.0, 0.0, 0.0, 0.0, 0.0, 1.718467504832796E9, 0.0, 2024-06-15 11:05:04.832
192.0, 72693.03622162774, 59171.30370990083, 74475.20786228274, -187500.02235174447, 108595.59280819808, -187500.02235174447, -167255.10862530573, -187500.02235174447, -0.07, 0.984, 0.114, 192.0, 253.0, 208.0, 30.0, 192.0, 3.0, 144.0, 0.0, 0.0, 0.0, 1.7184675048328297E9, 0.0, 2024-06-15 11:05:04.832
193.0, 72802.26919678084, 60386.09866930231, 75418.54088527452, -187500.02235174447, 108674.27094868076, -187500.02235174447, -167083.55898661126, -187500.02235174447, -0.07, 0.984, 0.114, 192.0, 0.0, 0.0, 0.0, 0.0, 0.0, 0.0, 0.0, 0.0, 0.0, 1.7184675048328402E9, 0.0, 2024-06-15 11:05:04.832
194.0, 72794.35667924365, 61499.237894921054, 76493.50333136361, -187500.02235174447, 108983.3285192643, -187500.02235174447, -166716.67745312184, -187500.02235174447, -0.07, 0.984, 0.114, 192.0, 0.0, 0.0, 0.0, 0.0, 0.0, 0.0, 0.0, 0.0, 0.0, 1.7184675048328507E9, 0.0, 2024-06-15 11:05:04.832
195.0, 72704.12268687757, 60525.86412738134, 75710.74524053874, -187500.02235174447, 108904.71743401498, -187500.02235174447, -166832.54889637817, -187500.02235174447, -0.07, 0.984, 0.114, 192.0, 0.0, 0.0, 0.0, 0.0, 0.0, 0.0, 0.0, 0.0, 0.0, 1.7184675048328607E9, 0.0, 2024-06-15 11:05:04.832
196.0, 72678.99932610981, 59191.46498339951, 74494.51976949212, -187500.02235174447, 108606.36634902554, -187500.02235174447, -167236.95900880801, -187500.02235174447, -0.07, 0.984, 0.114, 192.0, 0.0, 0.0, 0.0, 0.0, 0.0, 0.0, 0.0, 0.0, 0.0, 1.7184675048328872E9, 0.0, 2024-06-15 11:05:04.832
197.0, 72767.5792893862, 60065.93228172449, 75144.84377441929, -187500.02235174447, 108641.07860816462, -187500.02235174447, -167147.88730715364, -187500.02235174447, -0.07, 0.984, 0.114, 192.0, 0.0, 0.0, 0.0, 0.0, 0.0, 0.0, 0.0, 0.0, 0.0, 1.7184675048328977E9, 0.0, 2024-06-15 11:05:04.832
198.0, 72798.1341240566, 61469.890054451236, 76436.39462428029, -187500.02235174447, 108935.20521345202, -187500.02235174447, -166759.7492646872, -187500.02235174447, -0.07, 0.984, 0.114, 192.0, 0.0, 0.0, 0.0, 0.0, 0.0, 0.0, 0.0, 0.0, 0.0, 1.7184675048329115E9, 0.0, 2024-06-15 11:05:04.832
199.0, 72724.90980922102, 60816.34739832251, 75950.26653412182, -187500.02235174447, 108938.80384430932, -187500.02235174447, -166801.27880588517, -187500.02235174447, -0.07, 0.984, 0.114, 192.0, 0.0, 0.0, 0.0, 0.0, 0.0, 0.0, 0.0, 0.0, 0.0, 1.718467504832942E9, 0.0, 2024-06-15 11:05:04.832
200.0, 72679.55811972119, 59321.68624659613, 74616.51559072919, -187500.02235174447, 108636.38474182901, -187500.02235174447, -167191.4732088415, -187500.02235174447, -0.07, 0.984, 0.114, 192.0, 0.0, 0.0, 0.0, 0.0, 0.0, 0.0, 0.0, 0.0, 0.0, 1.7184675048329525E9, 0.0, 2024-06-15 11:05:04.832
201.0, 72769.3227254537, 59781.61809225298, 74901.433277301, -187500.02235174447, 108614.12240435152, -187500.02235174447, -167206.0688979708, -187500.02235174447, -0.07, 0.984, 0.114, 192.0, 0.0, 0.0, 0.0, 0.0, 0.0, 0.0, 0.0, 0.0, 0.0, 1.7184675048329632E9, 0.0, 2024-06-15 11:05:04.832
202.0, 72855.64516254011, 61375.96802425004, 76311.38131754176, -187500.02235174447, 108856.68353518052, -187500.02235174447, -166849.3350564641, -187500.02235174447, -0.07, 0.984, 0.114, 192.0, 0.0, 0.0, 0.0, 0.0, 0.0, 0.0, 0.0, 0.0, 0.0, 1.7184675048329897E9, 0.0, 2024-06-15 11:05:04.832
203.0, 72760.38202767159, 61043.84345338863, 76170.96765887352, -187500.02235174447, 108974.7678011379, -187500.02235174447, -166764.107854856, -187500.02235174447, -0.07200000000000001, 0.984, 0.11, 192.0, 253.0, 192.0, 30.0, 192.0, 3.0, 112.0, 0.0, 0.0, 0.0, 1.7184675048330204E9, 0.0, 2024-06-15 11:05:04.833
204.0, 72683.98376512334, 59478.39432697229, 74796.53654057224, -187500.02235174447, 108680.39532666151, -187500.02235174447, -167130.02826333384, -187500.02235174447, -0.07200000000000001, 0.984, 0.11, 192.0, 0.0, 0.0, 0.0, 0.0, 0.0, 0.0, 0.0, 0.0, 0.0, 1.7184675048330307E9, 0.0, 2024-06-15 11:05:04.833
205.0, 72742.94766699645, 59503.137708084316, 74708.40361218496, -187500.02235174447, 108614.03299737371, -187500.02235174447, -167235.2155727405, -187500.02235174447, -0.07200000000000001, 0.984, 0.11, 192.0, 0.0, 0.0, 0.0, 0.0, 0.0, 0.0, 0.0, 0.0, 0.0, 1.718467504833041E9, 0.0, 2024-06-15 11:05:04.833
206.0, 72830.85707793917, 61185.17353357954, 76146.98423707297, -187500.02235174447, 108827.40274994407, -187500.02235174447, -166874.10078932057, -187500.02235174447, -0.07200000000000001, 0.984, 0.11, 192.0, 0.0, 0.0, 0.0, 0.0, 0.0, 0.0, 0.0, 0.0, 0.0, 1.7184675048330672E9, 0.0, 2024-06-15 11:05:04.833
207.0, 72757.78922531477, 61246.14909245361, 76342.18202140117, -187500.02235174447, 109018.84544120377, -187500.02235174447, -166693.07401097706, -187500.02235174447, -0.07200000000000001, 0.984, 0.11, 192.0, 0.0, 0.0, 0.0, 0.0, 0.0, 0.0, 0.0, 0.0, 0.0, 1.7184675048330777E9, 0.0, 2024-06-15 11:05:04.833
208.0, 72699.31706181969, 59718.385007188925, 75000.67502268255, -187500.02235174447, 108739.29217330125, -187500.02235174447, -167034.0722243872, -187500.02235174447, -0.07200000000000001, 0.984, 0.11, 192.0, 0.0, 0.0, 0.0, 0.0, 0.0, 0.0, 0.0, 0.0, 0.0, 1.7184675048330877E9, 0.0, 2024-06-15 11:05:04.833
209.0, 72731.77179476879, 59290.43850784761, 74551.53906959761, -187500.02235174447, 108626.61702950204, -187500.02235174447, -167221.53630513386, -187500.02235174447, -0.07200000000000001, 0.984, 0.11, 192.0, 0.0, 0.0, 0.0, 0.0, 0.0, 0.0, 0.0, 0.0, 0.0, 1.7184675048330977E9, 0.0, 2024-06-15 11:05:04.833
210.0, 72829.65008373858, 60952.424818566426, 75903.23846378786, -187500.02235174447, 108785.96261572393, -187500.02235174447, -166911.11527813858, -187500.02235174447, -0.07200000000000001, 0.984, 0.11, 192.0, 0.0, 0.0, 0.0, 0.0, 0.0, 0.0, 0.0, 0.0, 0.0, 1.7184675048331082E9, 0.0, 2024-06-15 11:05:04.833
211.0, 72801.62099619163, 61444.00673437199, 76447.70460697469, -187500.02235174447, 109006.82020268682, -187500.02235174447, -166698.97487151323, -187500.02235174447, -0.07200000000000001, 0.984, 0.11, 192.0, 0.0, 0.0, 0.0, 0.0, 0.0, 0.0, 0.0, 0.0, 0.0, 1.718467504833119E9, 0.0, 2024-06-15 11:05:04.833
212.0, 72711.63287301456, 60040.78656921227, 75245.53838319045, -187500.02235174447, 108774.29500511826, -187500.02235174447, -166993.66027041202, -187500.02235174447, -0.07200000000000001, 0.984, 0.11, 192.0, 0.0, 0.0, 0.0, 0.0, 0.0, 0.0, 0.0, 0.0, 0.0, 1.7184675048331292E9, 0.0, 2024-06-15 11:05:04.833
213.0, 72710.91761719198, 59216.90126858965, 74469.86579535792, -187500.02235174447, 108601.06898558963, -187500.02235174447, -167285.93168090962, -187500.02235174447, -0.078, 0.986, 0.11, 192.0, 253.0, 144.0, 30.0, 208.0, 3.0, 112.0, 0.0, 0.0, 0.0, 1.7184675048331397E9, 0.0, 2024-06-15 11:05:04.833
214.0, 72806.85130439416, 60694.664501507825, 75661.0573126146, -187500.02235174447, 108719.80145213622, -187500.02235174447, -167030.94298016347, -187500.02235174447, -0.078, 0.986, 0.11, 192.0, 0.0, 0.0, 0.0, 0.0, 0.0, 0.0, 0.0, 0.0, 0.0, 1.71846750483315E9, 0.0, 2024-06-15 11:05:04.833
215.0, 72767.91456555302, 61530.12800575829, 76527.09800327993, -187500.02235174447, 108998.19242932707, -187500.02235174447, -166694.81744704457, -187500.02235174447, -0.078, 0.986, 0.11, 192.0, 0.0, 0.0, 0.0, 0.0, 0.0, 0.0, 0.0, 0.0, 0.0, 1.71846750483316E9, 0.0, 2024-06-15 11:05:04.833
216.0, 72689.52699774827, 60314.75190100097, 75507.79140088457, -187500.02235174447, 108829.45911043396, -187500.02235174447, -166922.08998466612, -187500.02235174447, -0.078, 0.986, 0.11, 192.0, 0.0, 0.0, 0.0, 0.0, 0.0, 0.0, 0.0, 0.0, 0.0, 1.7184675048331702E9, 0.0, 2024-06-15 11:05:04.833
217.0, 72667.93521260444, 59141.86646245319, 74461.1262632759, -187500.02235174447, 108629.09807313659, -187500.02235174447, -167251.19707002607, -187500.02235174447, -0.078, 0.986, 0.11, 192.0, 0.0, 0.0, 0.0, 0.0, 0.0, 0.0, 0.0, 0.0, 0.0, 1.718467504833181E9, 0.0, 2024-06-15 11:05:04.833
218.0, 72767.71339985293, 60335.13669194421, 75377.54778594349, -187500.02235174447, 108703.03764379474, -187500.02235174447, -167075.98174524092, -187500.02235174447, -0.078, 0.986, 0.11, 192.0, 0.0, 0.0, 0.0, 0.0, 0.0, 0.0, 0.0, 0.0, 0.0, 1.7184675048331912E9, 0.0, 2024-06-15 11:05:04.833
219.0, 72784.94659482797, 61537.59348840636, 76511.09415424993, -187500.02235174447, 108973.7172691485, -187500.02235174447, -166709.7931158296, -187500.02235174447, -0.078, 0.986, 0.11, 192.0, 0.0, 0.0, 0.0, 0.0, 0.0, 0.0, 0.0, 0.0, 0.0, 1.7184675048332036E9, 0.0, 2024-06-15 11:05:04.833
220.0, 72706.93900667895, 60598.32848290545, 75763.94239234237, -187500.02235174447, 108891.86518095317, -187500.02235174447, -166841.0872627601, -187500.02235174447, -0.078, 0.986, 0.11, 192.0, 0.0, 0.0, 0.0, 0.0, 0.0, 0.0, 0.0, 0.0, 0.0, 1.7184675048332348E9, 0.0, 2024-06-15 11:05:04.833
221.0, 72669.41042773849, 59187.553428119834, 74511.39533655588, -187500.02235174447, 108634.52954703923, -187500.02235174447, -167230.45465117155, -187500.02235174447, -0.078, 0.986, 0.11, 192.0, 0.0, 0.0, 0.0, 0.0, 0.0, 0.0, 0.0, 0.0, 0.0, 1.7184675048332453E9, 0.0, 2024-06-15 11:05:04.833
222.0, 72775.3800482011, 60018.63599045706, 75106.51053267844, -187500.02235174447, 108651.76274201427, -187500.02235174447, -167175.98344993396, -187500.02235174447, -0.078, 0.986, 0.11, 192.0, 0.0, 0.0, 0.0, 0.0, 0.0, 0.0, 0.0, 0.0, 0.0, 1.7184675048332555E9, 0.0, 2024-06-15 11:05:04.833
223.0, 72820.21764757844, 61500.6684065662, 76444.08362437291, -187500.02235174447, 108900.67176826857, -187500.02235174447, -166792.15929414742, -187500.02235174447, -0.08, 0.986, 0.11, 192.0, 253.0, 128.0, 30.0, 208.0, 3.0, 112.0, 0.0, 0.0, 0.0, 1.7184675048332734E9, 0.0, 2024-06-15 11:05:04.833
224.0, 72754.50351887984, 60888.744698613256, 76004.9389010595, -187500.02235174447, 108911.93704747404, -187500.02235174447, -166832.6830068449, -187500.02235174447, -0.08, 0.986, 0.11, 192.0, 0.0, 0.0, 0.0, 0.0, 0.0, 0.0, 0.0, 0.0, 0.0, 1.7184675048332999E9, 0.0, 2024-06-15 11:05:04.833
225.0, 72681.34625927762, 59350.251776010016, 74657.73220750479, -187500.02235174447, 108667.11839045506, -187500.02235174447, -167195.3177088878, -187500.02235174447, -0.08, 0.986, 0.11, 192.0, 0.0, 0.0, 0.0, 0.0, 0.0, 0.0, 0.0, 0.0, 0.0, 1.7184675048333108E9, 0.0, 2024-06-15 11:05:04.833
226.0, 72745.04873097525, 59737.65221090939, 74882.90368114754, -187500.02235174447, 108673.33217541364, -187500.02235174447, -167189.19333090703, -187500.02235174447, -0.08, 0.986, 0.11, 192.0, 0.0, 0.0, 0.0, 0.0, 0.0, 0.0, 0.0, 0.0, 0.0, 1.7184675048333216E9, 0.0, 2024-06-15 11:05:04.833
227.0, 72819.45768826696, 61389.62494011223, 76296.11507607879, -187500.02235174447, 108859.47750323743, -187500.02235174447, -166836.70632084683, -187500.02235174447, -0.08, 0.986, 0.11, 192.0, 0.0, 0.0, 0.0, 0.0, 0.0, 0.0, 0.0, 0.0, 0.0, 1.7184675048333316E9, 0.0, 2024-06-15 11:05:04.833
228.0, 72751.39662640056, 61134.457425410445, 76205.90343545716, -187500.02235174447, 108955.83587358426, -187500.02235174447, -166773.9649741608, -187500.02235174447, -0.08, 0.986, 0.11, 192.0, 0.0, 0.0, 0.0, 0.0, 0.0, 0.0, 0.0, 0.0, 0.0, 1.718467504833342E9, 0.0, 2024-06-15 11:05:04.833
229.0, 72679.33460227663, 59544.46608358218, 74831.60642762261, -187500.02235174447, 108688.53136164324, -187500.02235174447, -167146.23327806394, -187500.02235174447, -0.08, 0.986, 0.11, 192.0, 0.0, 0.0, 0.0, 0.0, 0.0, 0.0, 0.0, 0.0, 0.0, 1.7184675048333728E9, 0.0, 2024-06-15 11:05:04.833
230.0, 72734.14107968105, 59489.145516055294, 74685.873053774, -187500.02235174447, 108637.72584649634, -187500.02235174447, -167264.07167483232, -187500.02235174447, -0.08, 0.986, 0.11, 192.0, 0.0, 0.0, 0.0, 0.0, 0.0, 0.0, 0.0, 0.0, 0.0, 1.7184675048333833E9, 0.0, 2024-06-15 11:05:04.833
231.0, 72830.67826398353, 61216.26481011687, 76122.10674549422, -187500.02235174447, 108802.99464499888, -187500.02235174447, -166912.52343803924, -187500.02235174447, -0.08, 0.986, 0.11, 192.0, 0.0, 0.0, 0.0, 0.0, 0.0, 0.0, 0.0, 0.0, 0.0, 1.718467504833394E9, 0.0, 2024-06-15 11:05:04.833
232.0, 72762.34898118365, 61335.84664295276, 76373.34035317188, -187500.02235174447, 108976.80180988334, -187500.02235174447, -166741.24202027824, -187500.02235174447, -0.08, 0.986, 0.11, 192.0, 0.0, 0.0, 0.0, 0.0, 0.0, 0.0, 0.0, 0.0, 0.0, 1.7184675048334205E9, 0.0, 2024-06-15 11:05:04.833
233.0, 72676.11595107507, 59784.8143917101, 75061.9188024901, -187500.02235174447, 108737.39227502255, -187500.02235174447, -167064.9846869689, -187500.02235174447, -0.076, 0.984, 0.112, 192.0, 253.0, 160.0, 30.0, 192.0, 3.0, 128.0, 0.0, 0.0, 0.0, 1.718467504833451E9, 0.0, 2024-06-15 11:05:04.833
234.0, 72698.3112333192, 59255.56978649733, 74551.98610448673, -187500.02235174447, 108649.57227105765, -187500.02235174447, -167264.00461959894, -187500.02235174447, -0.076, 0.984, 0.112, 192.0, 0.0, 0.0, 0.0, 0.0, 0.0, 0.0, 0.0, 0.0, 0.0, 1.7184675048334627E9, 0.0, 2024-06-15 11:05:04.833
235.0, 72815.72494694292, 60910.49294596827, 75881.82549259967, -187500.02235174447, 108767.5671300372, -187500.02235174447, -166966.32408694318, -187500.02235174447, -0.076, 0.984, 0.112, 192.0, 0.0, 0.0, 0.0, 0.0, 0.0, 0.0, 0.0, 0.0, 0.0, 1.7184675048334892E9, 0.0, 2024-06-15 11:05:04.833
236.0, 72793.57436818772, 61477.46729582159, 76481.6569068023, -187500.02235174447, 108971.86207435872, -187500.02235174447, -166731.98839807374, -187500.02235174447, -0.076, 0.984, 0.112, 192.0, 0.0, 0.0, 0.0, 0.0, 0.0, 0.0, 0.0, 0.0, 0.0, 1.7184675048335156E9, 0.0, 2024-06-15 11:05:04.833
237.0, 72696.83601818515, 60091.74854657037, 75321.24374166057, -187500.02235174447, 108782.69926103346, -187500.02235174447, -166991.08981979964, -187500.02235174447, -0.076, 0.984, 0.112, 192.0, 0.0, 0.0, 0.0, 0.0, 0.0, 0.0, 0.0, 0.0, 0.0, 1.718467504833526E9, 0.0, 2024-06-15 11:05:04.833
238.0, 72691.73982044934, 59175.595244836244, 74490.67526944581, -187500.02235174447, 108646.93476521192, -187500.02235174447, -167268.7431894235, -187500.02235174447, -0.076, 0.984, 0.112, 192.0, 0.0, 0.0, 0.0, 0.0, 0.0, 0.0, 0.0, 0.0, 0.0, 1.7184675048335521E9, 0.0, 2024-06-15 11:05:04.833
239.0, 72823.21278133545, 60628.68215187576, 75625.6521493974, -187500.02235174447, 108734.21832730989, -187500.02235174447, -167029.0207301403, -187500.02235174447, -0.076, 0.984, 0.112, 192.0, 0.0, 0.0, 0.0, 0.0, 0.0, 0.0, 0.0, 0.0, 0.0, 1.7184675048335834E9, 0.0, 2024-06-15 11:05:04.833
240.0, 72816.0378713653, 61561.822779395916, 76537.066881307, -187500.02235174447, 108973.11377204822, -187500.02235174447, -166713.43645017582, -187500.02235174447, -0.076, 0.984, 0.112, 192.0, 0.0, 0.0, 0.0, 0.0, 0.0, 0.0, 0.0, 0.0, 0.0, 1.718467504833594E9, 0.0, 2024-06-15 11:05:04.833
241.0, 72704.74853572232, 60381.13658203323, 75571.49387258218, -187500.02235174447, 108847.04993332029, -187500.02235174447, -166900.3417373111, -187500.02235174447, -0.076, 0.984, 0.112, 192.0, 0.0, 0.0, 0.0, 0.0, 0.0, 0.0, 0.0, 0.0, 0.0, 1.7184675048336048E9, 0.0, 2024-06-15 11:05:04.833
242.0, 72690.3093088042, 59148.14730264513, 74470.89397560287, -187500.02235174447, 108650.73456176932, -187500.02235174447, -167263.1776050541, -187500.02235174447, -0.076, 0.984, 0.112, 192.0, 0.0, 0.0, 0.0, 0.0, 0.0, 0.0, 0.0, 0.0, 0.0, 1.718467504833631E9, 0.0, 2024-06-15 11:05:04.833
243.0, 72797.44121997849, 60294.61297924674, 75345.51773613904, -187500.02235174447, 108709.92198108697, -187500.02235174447, -167114.47144919293, -187500.02235174447, -0.076, 0.984, 0.112, 192.0, 0.0, 0.0, 0.0, 0.0, 0.0, 0.0, 0.0, 0.0, 0.0, 1.7184675048336728E9, 0.0, 2024-06-15 11:05:04.833
244.0, 72805.04081309329, 61548.59054667837, 76517.24088397514, -187500.02235174447, 108956.50642591792, -187500.02235174447, -166739.4538807218, -187500.02235174447, -0.074, 0.984, 0.114, 192.0, 253.0, 176.0, 30.0, 192.0, 3.0, 144.0, 0.0, 0.0, 0.0, 1.718467504833684E9, 0.0, 2024-06-15 11:05:04.833
245.0, 72726.74265226634, 60658.83465514597, 75823.62155003805, -187500.02235174447, 108899.62123627917, -187500.02235174447, -166846.384626196, -187500.02235174447, -0.074, 0.984, 0.114, 192.0, 0.0, 0.0, 0.0, 0.0, 0.0, 0.0, 0.0, 0.0, 0.0, 1.7184675048336945E9, 0.0, 2024-06-15 11:05:04.833
246.0, 72684.60961396809, 59210.50866967544, 74549.1474329409, -187500.02235174447, 108670.8511317791, -187500.02235174447, -167229.33706394877, -187500.02235174447, -0.074, 0.984, 0.114, 192.0, 0.0, 0.0, 0.0, 0.0, 0.0, 0.0, 0.0, 0.0, 0.0, 1.7184675048337045E9, 0.0, 2024-06-15 11:05:04.833
247.0, 72772.94370805546, 59972.74785909031, 75087.39979116914, -187500.02235174447, 108698.99197804833, -187500.02235174447, -167168.96500217498, -187500.02235174447, -0.074, 0.984, 0.114, 192.0, 0.0, 0.0, 0.0, 0.0, 0.0, 0.0, 0.0, 0.0, 0.0, 1.71846750483373E9, 0.0, 2024-06-15 11:05:04.833
248.0, 72817.98247313291, 61510.10084272634, 76443.92716216174, -187500.02235174447, 108924.65519006911, -187500.02235174447, -166769.8075496921, -187500.02235174447, -0.074, 0.984, 0.114, 192.0, 0.0, 0.0, 0.0, 0.0, 0.0, 0.0, 0.0, 0.0, 0.0, 1.7184675048337395E9, 0.0, 2024-06-15 11:05:04.833
249.0, 72753.54239386827, 60959.42091458094, 76053.10691036069, -187500.02235174447, 108936.88159428617, -187500.02235174447, -166803.98336696427, -187500.02235174447, -0.074, 0.984, 0.114, 192.0, 0.0, 0.0, 0.0, 0.0, 0.0, 0.0, 0.0, 0.0, 0.0, 1.7184675048337493E9, 0.0, 2024-06-15 11:05:04.833
250.0, 72687.73885819183, 59381.92419790319, 74697.16068472395, -187500.02235174447, 108694.70044311292, -187500.02235174447, -167182.48780757043, -187500.02235174447, -0.074, 0.984, 0.114, 192.0, 0.0, 0.0, 0.0, 0.0, 0.0, 0.0, 0.0, 0.0, 0.0, 1.7184675048337593E9, 0.0, 2024-06-15 11:05:04.833
251.0, 72761.29844919425, 59702.023530247636, 74866.00576233934, -187500.02235174447, 108697.94144605893, -187500.02235174447, -167194.8259705098, -187500.02235174447, -0.074, 0.984, 0.114, 192.0, 0.0, 0.0, 0.0, 0.0, 0.0, 0.0, 0.0, 0.0, 0.0, 1.718467504833769E9, 0.0, 2024-06-15 11:05:04.833
252.0, 72843.3964065786, 61391.658948857665, 76299.91487263619, -187500.02235174447, 108876.33071855674, -187500.02235174447, -166823.3176259181, -187500.02235174447, -0.074, 0.984, 0.114, 192.0, 0.0, 0.0, 0.0, 0.0, 0.0, 0.0, 0.0, 0.0, 0.0, 1.718467504833779E9, 0.0, 2024-06-15 11:05:04.833
253.0, 72772.31785921071, 61181.01610911085, 76256.15015699269, -187500.02235174447, 108976.28771976088, -187500.02235174447, -166738.67156966586, -187500.02235174447, -0.074, 0.984, 0.114, 192.0, 0.0, 0.0, 0.0, 0.0, 0.0, 0.0, 0.0, 0.0, 0.0, 1.7184675048337898E9, 0.0, 2024-06-15 11:05:04.833
254.0, 72719.14305915154, 59574.283310685554, 74881.69668694696, -187500.02235174447, 108713.8111846222, -187500.02235174447, -167123.456850464, -187500.02235174447, -0.074, 0.98, 0.108, 192.0, 253.0, 176.0, 30.0, 160.0, 3.0, 96.0, 0.0, 0.0, 0.0, 1.7184675048338003E9, 0.0, 2024-06-15 11:05:04.833
255.0, 72776.78820810177, 59446.29722193447, 74678.65344031494, -187500.02235174447, 108674.06978298066, -187500.02235174447, -167249.36422698072, -187500.02235174447, -0.074, 0.98, 0.108, 192.0, 0.0, 0.0, 0.0, 0.0, 0.0, 0.0, 0.0, 0.0, 0.0, 1.7184675048338108E9, 0.0, 2024-06-15 11:05:04.833
0.0, 72858.95322071949, 61162.777085635316, 76097.74334403794, -187500.02235174447, 108820.27254346282, -187500.02235174447, -166908.32131008164, -187500.02235174447, -0.074, 0.98, 0.108, 192.0, 0.0, 0.0, 0.0, 0.0, 0.0, 0.0, 0.0, 0.0, 0.0, 1.718467504833821E9, 0.0, 2024-06-15 11:05:04.833
1.0, 72804.41496424854, 61361.14881767617, 76411.80770537946, -187500.02235174447, 108981.6744901746, -187500.02235174447, -166747.92519187037, -187500.02235174447, -0.074, 0.98, 0.108, 192.0, 0.0, 0.0, 0.0, 0.0, 0.0, 0.0, 0.0, 0.0, 0.0, 1.7184675048338308E9, 0.0, 2024-06-15 11:05:04.833
2.0, 72713.82334397118, 59843.107741249536, 75131.14215506818, -187500.02235174447, 108762.42622881249, -187500.02235174447, -167069.54444283777, -187500.02235174447, -0.074, 0.98, 0.108, 192.0, 0.0, 0.0, 0.0, 0.0, 0.0, 0.0, 0.0, 0.0, 0.0, 1.7184675048338456E9, 0.0, 2024-06-15 11:05:04.833
3.0, 72726.07209993269, 59268.06441164785, 74572.86263380798, -187500.02235174447, 108686.0056145198, -187500.02235174447, -167266.59742195575, -187500.02235174447, -0.074, 0.98, 0.108, 192.0, 0.0, 0.0, 0.0, 0.0, 0.0, 0.0, 0.0, 0.0, 0.0, 1.7184675048338554E9, 0.0, 2024-06-15 11:05:04.833
4.0, 72847.57618279173, 60898.020672562205, 75870.9625447944, -187500.02235174447, 108785.6273395571, -187500.02235174447, -166985.5689389192, -187500.02235174447, -0.074, 0.98, 0.108, 192.0, 0.0, 0.0, 0.0, 0.0, 0.0, 0.0, 0.0, 0.0, 0.0, 1.7184675048338652E9, 0.0, 2024-06-15 11:05:04.833
5.0, 72804.2808537818, 61494.74519428554, 76526.74037536865, -187500.02235174447, 109003.42273752962, -187500.02235174447, -166710.53072339663, -187500.02235174447, -0.074, 0.98, 0.108, 192.0, 0.0, 0.0, 0.0, 0.0, 0.0, 0.0, 0.0, 0.0, 0.0, 1.7184675048338752E9, 0.0, 2024-06-15 11:05:04.833
6.0, 72707.6095590126, 60124.47150045294, 75378.62066967734, -187500.02235174447, 108820.74193009638, -187500.02235174447, -166967.9557642884, -187500.02235174447, -0.074, 0.98, 0.108, 192.0, 0.0, 0.0, 0.0, 0.0, 0.0, 0.0, 0.0, 0.0, 0.0, 1.7184675048338857E9, 0.0, 2024-06-15 11:05:04.833
7.0, 72698.24417808584, 59164.486427841955, 74496.21850207073, -187500.02235174447, 108683.68103309645, -187500.02235174447, -167255.2874392614, -187500.02235174447, -0.074, 0.98, 0.108, 192.0, 0.0, 0.0, 0.0, 0.0, 0.0, 0.0, 0.0, 0.0, 0.0, 1.7184675048338957E9, 0.0, 2024-06-15 11:05:04.833
8.0, 72806.09134508269, 60589.61130256788, 75589.8893582689, -187500.02235174447, 108758.17939736598, -187500.02235174447, -167035.681549988, -187500.02235174447, -0.08, 0.98, 0.106, 192.0, 253.0, 128.0, 30.0, 160.0, 3.0, 80.0, 0.0, 0.0, 0.0, 1.7184675048339207E9, 0.0, 2024-06-15 11:05:04.833
9.0, 72799.60933919065, 61583.36986105083, 76548.75684365712, -187500.02235174447, 108984.93784486507, -187500.02235174447, -166720.67841537934, -187500.02235174447, -0.08, 0.98, 0.106, 192.0, 0.0, 0.0, 0.0, 0.0, 0.0, 0.0, 0.0, 0.0, 0.0, 1.7184675048339312E9, 0.0, 2024-06-15 11:05:04.833
10.0, 72712.81751547068, 60449.15294041073, 75630.12249828846, -187500.02235174447, 108860.39392476011, -187500.02235174447, -166912.1434583835, -187500.02235174447, -0.08, 0.98, 0.106, 192.0, 0.0, 0.0, 0.0, 0.0, 0.0, 0.0, 0.0, 0.0, 0.0, 1.7184675048339415E9, 0.0, 2024-06-15 11:05:04.833
11.0, 72688.40941052549, 59188.402794409136, 74512.80349645657, -187500.02235174447, 108670.73937305681, -187500.02235174447, -167261.90355562014, -187500.02235174447, -0.08, 0.98, 0.106, 192.0, 0.0, 0.0, 0.0, 0.0, 0.0, 0.0, 0.0, 0.0, 0.0, 1.718467504833952E9, 0.0, 2024-06-15 11:05:04.833
12.0, 72816.77547893232, 60294.94825541357, 75319.58971257087, -187500.02235174447, 108704.98224556235, -187500.02235174447, -167153.47524326746, -187500.02235174447, -0.08, 0.98, 0.106, 192.0, 0.0, 0.0, 0.0, 0.0, 0.0, 0.0, 0.0, 0.0, 0.0, 1.718467504833963E9, 0.0, 2024-06-15 11:05:04.833
13.0, 72855.71221777347, 61614.77406201054, 76538.25152376313, -187500.02235174447, 108933.03709423984, -187500.02235174447, -166806.28559664317, -187500.02235174447, -0.08, 0.98, 0.106, 192.0, 0.0, 0.0, 0.0, 0.0, 0.0, 0.0, 0.0, 0.0, 0.0, 1.7184675048339887E9, 0.0, 2024-06-15 11:05:04.833
14.0, 72747.59682984315, 60749.44862716778, 75908.44642024593, -187500.02235174447, 108927.33739940374, -187500.02235174447, -166855.61589665603, -187500.02235174447, -0.08, 0.98, 0.106, 192.0, 0.0, 0.0, 0.0, 0.0, 0.0, 0.0, 0.0, 0.0, 0.0, 1.7184675048339984E9, 0.0, 2024-06-15 11:05:04.833
15.0, 72682.62030871157, 59249.7359811945, 74595.08026779655, -187500.02235174447, 108690.67712911096, -187500.02235174447, -167245.40796821212, -187500.02235174447, -0.08, 0.98, 0.106, 192.0, 0.0, 0.0, 0.0, 0.0, 0.0, 0.0, 0.0, 0.0, 0.0, 1.7184675048340092E9, 0.0, 2024-06-15 11:05:04.834
16.0, 72761.05258000524, 59940.67310579695, 75072.49117761746, -187500.02235174447, 108707.99973106381, -187500.02235174447, -167203.85607526972, -187500.02235174447, -0.08, 0.98, 0.106, 192.0, 0.0, 0.0, 0.0, 0.0, 0.0, 0.0, 0.0, 0.0, 0.0, 1.7184675048340187E9, 0.0, 2024-06-15 11:05:04.834
17.0, 72803.34208051469, 61510.41376714871, 76456.82411871245, -187500.02235174447, 108945.0176292679, -187500.02235174447, -166780.2681660972, -187500.02235174447, -0.08, 0.98, 0.106, 192.0, 0.0, 0.0, 0.0, 0.0, 0.0, 0.0, 0.0, 0.0, 0.0, 1.718467504834046E9, 0.0, 2024-06-15 11:05:04.834
18.0, 72733.73874828086, 60998.6482261, 76110.99792849993, -187500.02235174447, 108979.5734261958, -187500.02235174447, -166771.99802064872, -187500.02235174447, -0.078, 0.984, 0.108, 192.0, 253.0, 144.0, 30.0, 192.0, 3.0, 96.0, 0.0, 0.0, 0.0, 1.718467505312804E9, 0.0, 2024-06-15 11:05:05.312
19.0, 72685.99542212432, 59413.46250932962, 74730.4424322179, -187500.02235174447, 108719.39912073602, -187500.02235174447, -167173.14477838812, -187500.02235174447, -0.078, 0.984, 0.108, 192.0, 0.0, 0.0, 0.0, 0.0, 0.0, 0.0, 0.0, 0.0, 0.0, 1.7184675053129869E9, 0.0, 2024-06-15 11:05:05.312
20.0, 72761.61137361663, 59668.33945135349, 74843.72107311738, -187500.02235174447, 108692.80054483422, -187500.02235174447, -167245.18445076759, -187500.02235174447, -0.078, 0.984, 0.108, 192.0, 0.0, 0.0, 0.0, 0.0, 0.0, 0.0, 0.0, 0.0, 0.0, 1.7184675053129976E9, 0.0, 2024-06-15 11:05:05.312
21.0, 72843.91049670106, 61373.30816665986, 76295.39982025622, -187500.02235174447, 108873.13441909963, -187500.02235174447, -166874.03373408722, -187500.02235174447, -0.078, 0.984, 0.108, 192.0, 0.0, 0.0, 0.0, 0.0, 0.0, 0.0, 0.0, 0.0, 0.0, 1.7184675053130095E9, 0.0, 2024-06-15 11:05:05.313
22.0, 72777.45876043545, 61241.92461275156, 76308.05090761792, -187500.02235174447, 108985.45193498755, -187500.02235174447, -166777.8094742071, -187500.02235174447, -0.078, 0.984, 0.108, 192.0, 0.0, 0.0, 0.0, 0.0, 0.0, 0.0, 0.0, 0.0, 0.0, 1.718467505313019E9, 0.0, 2024-06-15 11:05:05.313
23.0, 72701.23931184284, 59655.867177947424, 74941.12997545362, -187500.02235174447, 108742.53317624726, -187500.02235174447, -167133.29161802432, -187500.02235174447, -0.078, 0.984, 0.108, 192.0, 0.0, 0.0, 0.0, 0.0, 0.0, 0.0, 0.0, 0.0, 0.0, 1.7184675053130283E9, 0.0, 2024-06-15 11:05:05.313
24.0, 72751.95542001193, 59445.53726262299, 74669.48922508827, -187500.02235174447, 108686.16207673098, -187500.02235174447, -167288.05509663286, -187500.02235174447, -0.078, 0.984, 0.108, 192.0, 0.0, 0.0, 0.0, 0.0, 0.0, 0.0, 0.0, 0.0, 0.0, 1.7184675053130376E9, 0.0, 2024-06-15 11:05:05.313
25.0, 72861.83659575423, 61166.35336474817, 76086.76863751038, -187500.02235174447, 108824.25115397587, -187500.02235174447, -166963.3066014417, -187500.02235174447, -0.078, 0.984, 0.108, 192.0, 0.0, 0.0, 0.0, 0.0, 0.0, 0.0, 0.0, 0.0, 0.0, 1.7184675053130467E9, 0.0, 2024-06-15 11:05:05.313
26.0, 72808.08065033921, 61434.70840867858, 76459.41692106926, -187500.02235174447, 109002.03692937338, -187500.02235174447, -166775.7754654617, -187500.02235174447, -0.078, 0.984, 0.108, 192.0, 0.0, 0.0, 0.0, 0.0, 0.0, 0.0, 0.0, 0.0, 0.0, 1.7184675053130555E9, 0.0, 2024-06-15 11:05:05.313
27.0, 72726.94381796644, 59933.81112024917, 75180.94184171461, -187500.02235174447, 108773.95972895143, -187500.02235174447, -167109.21878924596, -187500.02235174447, -0.078, 0.984, 0.108, 192.0, 0.0, 0.0, 0.0, 0.0, 0.0, 0.0, 0.0, 0.0, 0.0, 1.7184675053130646E9, 0.0, 2024-06-15 11:05:05.313
28.0, 72730.54244882375, 59285.856400234275, 74575.05310476459, -187500.02235174447, 108687.72669884286, -187500.02235174447, -167327.4388703631, -187500.02235174447, -0.078, 0.984, 0.108, 192.0, 0.0, 0.0, 0.0, 0.0, 0.0, 0.0, 0.0, 0.0, 0.0, 1.7184675053130739E9, 0.0, 2024-06-15 11:05:05.313
29.0, 72839.44014781, 60881.43567817637, 75859.89843128901, -187500.02235174447, 108805.07335723321, -187500.02235174447, -167028.48428827338, -187500.02235174447, -0.076, 0.978, 0.10400000000000001, 192.0, 253.0, 160.0, 30.0, 144.0, 3.0, 64.0, 0.0, 0.0, 0.0, 1.7184675053130827E9, 0.0, 2024-06-15 11:05:05.313
30.0, 72805.1302200711, 61538.06287503993, 76562.61492521942, -187500.02235174447, 109036.50331932347, -187500.02235174447, -166729.70852013928, -187500.02235174447, -0.076, 0.978, 0.10400000000000001, 192.0, 0.0, 0.0, 0.0, 0.0, 0.0, 0.0, 0.0, 0.0, 0.0, 1.7184675053130915E9, 0.0, 2024-06-15 11:05:05.313
31.0, 72725.1109749211, 60194.745385020426, 75434.96941744917, -187500.02235174447, 108850.4473984775, -187500.02235174447, -166996.23072102436, -187500.02235174447, -0.076, 0.978, 0.10400000000000001, 192.0, 0.0, 0.0, 0.0, 0.0, 0.0, 0.0, 0.0, 0.0, 0.0, 1.7184675053131003E9, 0.0, 2024-06-15 11:05:05.313
32.0, 72706.29080608975, 59171.30370990083, 74514.6363395019, -187500.02235174447, 108709.92198108697, -187500.02235174447, -167289.01622164444, -187500.02235174447, -0.076, 0.978, 0.10400000000000001, 192.0, 0.0, 0.0, 0.0, 0.0, 0.0, 0.0, 0.0, 0.0, 0.0, 1.7184675053131092E9, 0.0, 2024-06-15 11:05:05.313
33.0, 72825.35854880317, 60551.7921509495, 75567.69407602478, -187500.02235174447, 108777.8712842311, -187500.02235174447, -167092.41027741556, -187500.02235174447, -0.076, 0.978, 0.10400000000000001, 192.0, 0.0, 0.0, 0.0, 0.0, 0.0, 0.0, 0.0, 0.0, 0.0, 1.718467505313118E9, 0.0, 2024-06-15 11:05:05.313
34.0, 72826.47613602593, 61611.801279997984, 76580.85394869494, -187500.02235174447, 109006.35081605325, -187500.02235174447, -166774.99315440573, -187500.02235174447, -0.076, 0.978, 0.10400000000000001, 192.0, 0.0, 0.0, 0.0, 0.0, 0.0, 0.0, 0.0, 0.0, 0.0, 1.7184675053131273E9, 0.0, 2024-06-15 11:05:05.313
35.0, 72727.10028017763, 60506.84279284988, 75705.29141489166, -187500.02235174447, 108920.29659990032, -187500.02235174447, -166906.71198448088, -187500.02235174447, -0.076, 0.978, 0.10400000000000001, 192.0, 0.0, 0.0, 0.0, 0.0, 0.0, 0.0, 0.0, 0.0, 0.0, 1.718467505313136E9, 0.0, 2024-06-15 11:05:05.313
36.0, 72685.39192502403, 59187.70989033102, 74533.97059845574, -187500.02235174447, 108721.88016437057, -187500.02235174447, -167250.59357292578, -187500.02235174447, -0.076, 0.978, 0.10400000000000001, 192.0, 0.0, 0.0, 0.0, 0.0, 0.0, 0.0, 0.0, 0.0, 0.0, 1.7184675053131447E9, 0.0, 2024-06-15 11:05:05.313
37.0, 72803.92322587052, 60235.40320818463, 75293.14759888024, -187500.02235174447, 108749.1716443505, -187500.02235174447, -167147.21675481996, -187500.02235174447, -0.076, 0.978, 0.10400000000000001, 192.0, 0.0, 0.0, 0.0, 0.0, 0.0, 0.0, 0.0, 0.0, 0.0, 1.7184675053131535E9, 0.0, 2024-06-15 11:05:05.313
38.0, 72840.8483077107, 61601.161849637254, 76543.97357034369, -187500.02235174447, 108971.30328074734, -187500.02235174447, -166792.00283193623, -187500.02235174447, -0.076, 0.978, 0.10400000000000001, 192.0, 0.0, 0.0, 0.0, 0.0, 0.0, 0.0, 0.0, 0.0, 0.0, 1.7184675053131623E9, 0.0, 2024-06-15 11:05:05.313
39.0, 72743.12648095208, 60788.22890379774, 75959.11782492613, -187500.02235174447, 108961.53556842037, -187500.02235174447, -166840.61787612652, -187500.02235174447, -0.076, 0.978, 0.11, 192.0, 253.0, 160.0, 30.0, 144.0, 3.0, 112.0, 0.0, 0.0, 0.0, 1.7184675053131711E9, 0.0, 2024-06-15 11:05:05.313
40.0, 72683.80495116771, 59279.284987364415, 74642.37655906398, -187500.02235174447, 108738.2639930563, -187500.02235174447, -167197.28466239985, -187500.02235174447, -0.076, 0.978, 0.11, 192.0, 0.0, 0.0, 0.0, 0.0, 0.0, 0.0, 0.0, 0.0, 0.0, 1.71846750531318E9, 0.0, 2024-06-15 11:05:05.313
41.0, 72787.15941752904, 59923.685780010914, 75051.74875876293, -187500.02235174447, 108733.54777497624, -187500.02235174447, -167191.98729896394, -187500.02235174447, -0.076, 0.978, 0.11, 192.0, 0.0, 0.0, 0.0, 0.0, 0.0, 0.0, 0.0, 0.0, 0.0, 1.7184675053131893E9, 0.0, 2024-06-15 11:05:05.313
42.0, 72837.51789778685, 61518.750967830536, 76457.06998790146, -187500.02235174447, 108949.95736479251, -187500.02235174447, -166806.06207919863, -187500.02235174447, -0.076, 0.978, 0.11, 192.0, 0.0, 0.0, 0.0, 0.0, 0.0, 0.0, 0.0, 0.0, 0.0, 1.718467505313198E9, 0.0, 2024-06-15 11:05:05.313
43.0, 72756.62693460309, 61051.80067441472, 76182.4341037791, -187500.02235174447, 109008.98832189899, -187500.02235174447, -166774.6578782389, -187500.02235174447, -0.076, 0.978, 0.11, 192.0, 0.0, 0.0, 0.0, 0.0, 0.0, 0.0, 0.0, 0.0, 0.0, 1.718467505313207E9, 0.0, 2024-06-15 11:05:05.313
44.0, 72701.79810545422, 59449.29235569148, 74793.38494460404, -187500.02235174447, 108748.65755422802, -187500.02235174447, -167167.06510389628, -187500.02235174447, -0.076, 0.978, 0.11, 192.0, 0.0, 0.0, 0.0, 0.0, 0.0, 0.0, 0.0, 0.0, 0.0, 1.7184675053132155E9, 0.0, 2024-06-15 11:05:05.313
45.0, 72759.91264103803, 59625.64761944385, 74842.7152446169, -187500.02235174447, 108735.26885929929, -187500.02235174447, -167227.1689447366, -187500.02235174447, -0.076, 0.978, 0.11, 192.0, 0.0, 0.0, 0.0, 0.0, 0.0, 0.0, 0.0, 0.0, 0.0, 1.7184675053132243E9, 0.0, 2024-06-15 11:05:05.313
46.0, 72846.86092696917, 61347.894233214174, 76293.56697721088, -187500.02235174447, 108915.98271322045, -187500.02235174447, -166844.19415523938, -187500.02235174447, -0.076, 0.978, 0.11, 192.0, 0.0, 0.0, 0.0, 0.0, 0.0, 0.0, 0.0, 0.0, 0.0, 1.7184675053132331E9, 0.0, 2024-06-15 11:05:05.313
47.0, 72787.8299698627, 61275.89926432363, 76360.77867278799, -187500.02235174447, 109038.738493769, -187500.02235174447, -166725.79696485962, -187500.02235174447, -0.076, 0.978, 0.11, 192.0, 0.0, 0.0, 0.0, 0.0, 0.0, 0.0, 0.0, 0.0, 0.0, 1.718467505313242E9, 0.0, 2024-06-15 11:05:05.313
48.0, 72703.07215488817, 59685.4385358618, 74985.05115330829, -187500.02235174447, 108777.51365631982, -187500.02235174447, -167099.56283564126, -187500.02235174447, -0.076, 0.978, 0.11, 192.0, 0.0, 0.0, 0.0, 0.0, 0.0, 0.0, 0.0, 0.0, 0.0, 1.718467505313251E9, 0.0, 2024-06-15 11:05:05.313
49.0, 72736.77858552679, 59409.90858196123, 74654.44650106985, -187500.02235174447, 108702.14357401653, -187500.02235174447, -167285.05996287585, -187500.02235174447, -0.076, 0.978, 0.11, 192.0, 253.0, 160.0, 30.0, 144.0, 3.0, 112.0, 0.0, 0.0, 0.0, 1.7184675053132598E9, 0.0, 2024-06-15 11:05:05.313
50.0, 72828.66660698254, 61129.04830325226, 76070.04953265781, -187500.02235174447, 108858.29286078131, -187500.02235174447, -166931.67888303744, -187500.02235174447, -0.076, 0.978, 0.11, 192.0, 0.0, 0.0, 0.0, 0.0, 0.0, 0.0, 0.0, 0.0, 0.0, 1.7184675053132687E9, 0.0, 2024-06-15 11:05:05.313
51.0, 72761.99135327237, 61447.225385573554, 76497.21372094318, -187500.02235174447, 109065.51588362646, -187500.02235174447, -166683.8874440059, -187500.02235174447, -0.076, 0.978, 0.11, 192.0, 0.0, 0.0, 0.0, 0.0, 0.0, 0.0, 0.0, 0.0, 0.0, 1.7184675053132784E9, 0.0, 2024-06-15 11:05:05.313
52.0, 72688.11883784758, 59952.54188210272, 75215.31882468687, -187500.02235174447, 108826.53103191032, -187500.02235174447, -167013.4192125105, -187500.02235174447, -0.076, 0.978, 0.11, 192.0, 0.0, 0.0, 0.0, 0.0, 0.0, 0.0, 0.0, 0.0, 0.0, 1.7184675053132873E9, 0.0, 2024-06-15 11:05:05.313
53.0, 72721.62410278608, 59266.410382558155, 74550.46618586376, -187500.02235174447, 108705.161059518, -187500.02235174447, -167278.26503256144, -187500.02235174447, -0.076, 0.978, 0.11, 192.0, 0.0, 0.0, 0.0, 0.0, 0.0, 0.0, 0.0, 0.0, 0.0, 1.718467505313296E9, 0.0, 2024-06-15 11:05:05.313
54.0, 72849.54313630381, 60864.56011111261, 75822.7945354932, -187500.02235174447, 108805.92272352251, -187500.02235174447, -167016.7719741788, -187500.02235174447, -0.076, 0.978, 0.11, 192.0, 0.0, 0.0, 0.0, 0.0, 0.0, 0.0, 0.0, 0.0, 0.0, 1.7184675053133051E9, 0.0, 2024-06-15 11:05:05.313
55.0, 72818.76478418884, 61597.09383214639, 76577.9258701713, -187500.02235174447, 109027.5849732858, -187500.02235174447, -166742.82899413456, -187500.02235174447, -0.076, 0.978, 0.11, 192.0, 0.0, 0.0, 0.0, 0.0, 0.0, 0.0, 0.0, 0.0, 0.0, 1.718467505313314E9, 0.0, 2024-06-15 11:05:05.313
56.0, 72715.65618701652, 60280.106697095245, 75498.18015076878, -187500.02235174447, 108879.37055580266, -187500.02235174447, -166957.49514788334, -187500.02235174447, -0.076, 0.978, 0.11, 192.0, 0.0, 0.0, 0.0, 0.0, 0.0, 0.0, 0.0, 0.0, 0.0, 1.7184675053133228E9, 0.0, 2024-06-15 11:05:05.313
57.0, 72705.0614601447, 59208.608771396735, 74529.9919879427, -187500.02235174447, 108726.73049291737, -187500.02235174447, -167257.9249451071, -187500.02235174447, -0.076, 0.978, 0.11, 192.0, 0.0, 0.0, 0.0, 0.0, 0.0, 0.0, 0.0, 0.0, 0.0, 1.7184675053133316E9, 0.0, 2024-06-15 11:05:05.313
58.0, 72830.8347261947, 60533.50842398506, 75546.90695368135, -187500.02235174447, 108789.60595007014, -187500.02235174447, -167075.35589639616, -187500.02235174447, -0.076, 0.978, 0.11, 192.0, 0.0, 0.0, 0.0, 0.0, 0.0, 0.0, 0.0, 0.0, 0.0, 1.7184675053133407E9, 0.0, 2024-06-15 11:05:05.313
59.0, 72827.10198487068, 61622.775986525536, 76605.88790248489, -187500.02235174447, 109029.2837058644, -187500.02235174447, -166730.24496200623, -187500.02235174447, -0.08, 0.98, 0.114, 192.0, 253.0, 128.0, 30.0, 160.0, 3.0, 144.0, 0.0, 0.0, 0.0, 1.7184675053133495E9, 0.0, 2024-06-15 11:05:05.313
60.0, 72730.05071044574, 60552.395648049795, 75753.2806102372, -187500.02235174447, 108937.5074431309, -187500.02235174447, -166871.06095207465, -187500.02235174447, -0.08, 0.98, 0.114, 192.0, 0.0, 0.0, 0.0, 0.0, 0.0, 0.0, 0.0, 0.0, 0.0, 1.7184675053133583E9, 0.0, 2024-06-15 11:05:05.313
61.0, 72710.00119566932, 59218.15296627915, 74555.78590104412, -187500.02235174447, 108721.38842599255, -187500.02235174447, -167254.70629390553, -187500.02235174447, -0.08, 0.98, 0.114, 192.0, 0.0, 0.0, 0.0, 0.0, 0.0, 0.0, 0.0, 0.0, 0.0, 1.7184675053133674E9, 0.0, 2024-06-15 11:05:05.313
62.0, 72805.64431019359, 60207.754100293416, 75285.43624704317, -187500.02235174447, 108772.50686556184, -187500.02235174447, -167141.89703963962, -187500.02235174447, -0.08, 0.98, 0.114, 192.0, 0.0, 0.0, 0.0, 0.0, 0.0, 0.0, 0.0, 0.0, 0.0, 1.7184675053133764E9, 0.0, 2024-06-15 11:05:05.313
63.0, 72818.54126674429, 61593.87518094483, 76557.18345131677, -187500.02235174447, 109013.86100219024, -187500.02235174447, -166744.77359590217, -187500.02235174447, -0.08, 0.98, 0.114, 192.0, 0.0, 0.0, 0.0, 0.0, 0.0, 0.0, 0.0, 0.0, 0.0, 1.7184675053133852E9, 0.0, 2024-06-15 11:05:05.313
64.0, 72745.920449009, 60835.815767743086, 75988.97975551842, -187500.02235174447, 108984.15553380914, -187500.02235174447, -166827.74327132027, -187500.02235174447, -0.08, 0.98, 0.114, 192.0, 0.0, 0.0, 0.0, 0.0, 0.0, 0.0, 0.0, 0.0, 0.0, 1.7184675053133943E9, 0.0, 2024-06-15 11:05:05.313
65.0, 72691.24808207132, 59322.4015024187, 74668.23752739877, -187500.02235174447, 108746.0200483823, -187500.02235174447, -167218.80939231033, -187500.02235174447, -0.08, 0.98, 0.114, 192.0, 0.0, 0.0, 0.0, 0.0, 0.0, 0.0, 0.0, 0.0, 0.0, 1.7184675053134031E9, 0.0, 2024-06-15 11:05:05.313
66.0, 72788.18759777398, 59896.55076224217, 75035.09670914373, -187500.02235174447, 108745.39419953755, -187500.02235174447, -167217.53534287636, -187500.02235174447, -0.08, 0.98, 0.114, 192.0, 0.0, 0.0, 0.0, 0.0, 0.0, 0.0, 0.0, 0.0, 0.0, 1.718467505313413E9, 0.0, 2024-06-15 11:05:05.313
67.0, 72849.4984328149, 61525.30002895594, 76455.9971041676, -187500.02235174447, 108955.47824567297, -187500.02235174447, -166828.0785474871, -187500.02235174447, -0.08, 0.98, 0.114, 192.0, 0.0, 0.0, 0.0, 0.0, 0.0, 0.0, 0.0, 0.0, 0.0, 1.7184675053134224E9, 0.0, 2024-06-15 11:05:05.313
68.0, 72781.30326048176, 61124.22032644991, 76222.48842984301, -187500.02235174447, 109018.26429584794, -187500.02235174447, -166791.80166623613, -187500.02235174447, -0.08, 0.98, 0.114, 192.0, 0.0, 0.0, 0.0, 0.0, 0.0, 0.0, 0.0, 0.0, 0.0, 1.7184675053134313E9, 0.0, 2024-06-15 11:05:05.313
69.0, 72718.62896902907, 59528.26106885208, 74837.28377071426, -187500.02235174447, 108758.11234213262, -187500.02235174447, -167180.78907499183, -187500.02235174447, -0.08, 0.98, 0.114, 192.0, 0.0, 0.0, 0.0, 0.0, 0.0, 0.0, 0.0, 0.0, 0.0, 1.71846750531344E9, 0.0, 2024-06-15 11:05:05.313
70.0, 72767.28871670828, 59633.023695114105, 74840.59182889365, -187500.02235174447, 108744.99186813735, -187500.02235174447, -167243.55277342236, -187500.02235174447, -0.078, 0.984, 0.108, 192.0, 253.0, 144.0, 30.0, 192.0, 3.0, 96.0, 0.0, 0.0, 0.0, 1.7184675053134491E9, 0.0, 2024-06-15 11:05:05.313
71.0, 72849.14080490361, 61343.490939556475, 76279.7535991375, -187500.02235174447, 108911.22179165146, -187500.02235174447, -166885.85780690407, -187500.02235174447, -0.078, 0.984, 0.108, 192.0, 0.0, 0.0, 0.0, 0.0, 0.0, 0.0, 0.0, 0.0, 0.0, 1.7184675053134577E9, 0.0, 2024-06-15 11:05:05.313
72.0, 72789.30518499675, 61327.64355273767, 76393.70279237066, -187500.02235174447, 109032.94939195507, -187500.02235174447, -166785.49847429973, -187500.02235174447, -0.078, 0.984, 0.108, 192.0, 0.0, 0.0, 0.0, 0.0, 0.0, 0.0, 0.0, 0.0, 0.0, 1.7184675053134665E9, 0.0, 2024-06-15 11:05:05.313
73.0, 72706.35786132311, 59756.78530416314, 75056.28616288737, -187500.02235174447, 108794.6797960615, -187500.02235174447, -167133.87276338015, -187500.02235174447, -0.078, 0.984, 0.108, 192.0, 0.0, 0.0, 0.0, 0.0, 0.0, 0.0, 0.0, 0.0, 0.0, 1.7184675053134751E9, 0.0, 2024-06-15 11:05:05.313
74.0, 72735.34807388164, 59414.46833783011, 74685.98481249629, -187500.02235174447, 108732.25137379783, -187500.02235174447, -167297.01814615945, -187500.02235174447, -0.078, 0.984, 0.108, 192.0, 0.0, 0.0, 0.0, 0.0, 0.0, 0.0, 0.0, 0.0, 0.0, 1.7184675053134844E9, 0.0, 2024-06-15 11:05:05.313
75.0, 72836.91440068655, 61111.41277687703, 76076.08450366075, -187500.02235174447, 108879.81759069176, -187500.02235174447, -166952.48835712534, -187500.02235174447, -0.078, 0.984, 0.108, 192.0, 0.0, 0.0, 0.0, 0.0, 0.0, 0.0, 0.0, 0.0, 0.0, 1.7184675053134964E9, 0.0, 2024-06-15 11:05:05.313
76.0, 72799.8328566352, 61495.2145809191, 76538.09506155194, -187500.02235174447, 109075.4400581646, -187500.02235174447, -166729.59676141702, -187500.02235174447, -0.078, 0.984, 0.108, 192.0, 0.0, 0.0, 0.0, 0.0, 0.0, 0.0, 0.0, 0.0, 0.0, 1.7184675053135056E9, 0.0, 2024-06-15 11:05:05.313
77.0, 72715.85735271662, 60027.75550219483, 75292.81232271342, -187500.02235174447, 108859.67866893753, -187500.02235174447, -167031.05473888575, -187500.02235174447, -0.078, 0.984, 0.108, 192.0, 0.0, 0.0, 0.0, 0.0, 0.0, 0.0, 0.0, 0.0, 0.0, 1.7184675053135145E9, 0.0, 2024-06-15 11:05:05.313
78.0, 72737.13621343806, 59278.81560073085, 74568.72756108375, -187500.02235174447, 108730.61969645259, -187500.02235174447, -167305.51180905246, -187500.02235174447, -0.078, 0.984, 0.108, 192.0, 0.0, 0.0, 0.0, 0.0, 0.0, 0.0, 0.0, 0.0, 0.0, 1.7184675053135233E9, 0.0, 2024-06-15 11:05:05.313
79.0, 72857.58976430772, 60848.600965571524, 75801.4933230273, -187500.02235174447, 108820.71957835193, -187500.02235174447, -167060.42493110002, -187500.02235174447, -0.078, 0.984, 0.108, 192.0, 0.0, 0.0, 0.0, 0.0, 0.0, 0.0, 0.0, 0.0, 0.0, 1.718467505313532E9, 0.0, 2024-06-15 11:05:05.313
80.0, 72842.25646761137, 61639.137463466825, 76604.50209432867, -187500.02235174447, 109037.73266526852, -187500.02235174447, -166790.39350633544, -187500.02235174447, -0.08, 0.982, 0.106, 192.0, 253.0, 128.0, 30.0, 176.0, 3.0, 80.0, 0.0, 0.0, 0.0, 1.7184675053135412E9, 0.0, 2024-06-15 11:05:05.313
81.0, 72733.02349245829, 60358.29309919991, 75561.52499455512, -187500.02235174447, 108899.08479441224, -187500.02235174447, -166998.91293035902, -187500.02235174447, -0.08, 0.982, 0.106, 192.0, 0.0, 0.0, 0.0, 0.0, 0.0, 0.0, 0.0, 0.0, 0.0, 1.71846750531355E9, 0.0, 2024-06-15 11:05:05.313
82.0, 72699.62998624206, 59239.20830955605, 74562.82670054755, -187500.02235174447, 108745.70712395992, -187500.02235174447, -167299.8344659608, -187500.02235174447, -0.08, 0.982, 0.106, 192.0, 0.0, 0.0, 0.0, 0.0, 0.0, 0.0, 0.0, 0.0, 0.0, 1.7184675053135588E9, 0.0, 2024-06-15 11:05:05.313
83.0, 72807.65596719456, 60525.79707214798, 75546.63873274789, -187500.02235174447, 108820.85368881866, -187500.02235174447, -167099.942815297, -187500.02235174447, -0.08, 0.982, 0.106, 192.0, 0.0, 0.0, 0.0, 0.0, 0.0, 0.0, 0.0, 0.0, 0.0, 1.7184675053135676E9, 0.0, 2024-06-15 11:05:05.313
84.0, 72834.3439500742, 61669.3570219704, 76609.2853676421, -187500.02235174447, 109037.06211293484, -187500.02235174447, -166790.68407901336, -187500.02235174447, -0.08, 0.982, 0.106, 192.0, 0.0, 0.0, 0.0, 0.0, 0.0, 0.0, 0.0, 0.0, 0.0, 1.7184675053135805E9, 0.0, 2024-06-15 11:05:05.313
85.0, 72743.21588792991, 60649.33516375246, 75805.71780272936, -187500.02235174447, 108951.09730375974, -187500.02235174447, -166939.74786278582, -187500.02235174447, -0.08, 0.982, 0.106, 192.0, 0.0, 0.0, 0.0, 0.0, 0.0, 0.0, 0.0, 0.0, 0.0, 1.7184675053135896E9, 0.0, 2024-06-15 11:05:05.313
86.0, 72689.16936983698, 59273.45118206158, 74598.4553812093, -187500.02235174447, 108756.72653397638, -187500.02235174447, -167285.10466636476, -187500.02235174447, -0.08, 0.982, 0.106, 192.0, 0.0, 0.0, 0.0, 0.0, 0.0, 0.0, 0.0, 0.0, 0.0, 1.7184675053135986E9, 0.0, 2024-06-15 11:05:05.313
87.0, 72791.87563560912, 60211.75506255092, 75272.0699038589, -187500.02235174447, 108791.03646171528, -187500.02235174447, -167186.73463901694, -187500.02235174447, -0.08, 0.982, 0.106, 192.0, 0.0, 0.0, 0.0, 0.0, 0.0, 0.0, 0.0, 0.0, 0.0, 1.7184675053136077E9, 0.0, 2024-06-15 11:05:05.313
88.0, 72831.684092484, 61655.96832704167, 76555.26120129362, -187500.02235174447, 109004.33915905228, -187500.02235174447, -166830.626646355, -187500.02235174447, -0.08, 0.982, 0.106, 192.0, 0.0, 0.0, 0.0, 0.0, 0.0, 0.0, 0.0, 0.0, 0.0, 1.7184675053136165E9, 0.0, 2024-06-15 11:05:05.313
89.0, 72742.83590827417, 60949.49674004278, 76042.57923872223, -187500.02235174447, 109004.83089743029, -187500.02235174447, -166876.64888818847, -187500.02235174447, -0.08, 0.982, 0.106, 192.0, 0.0, 0.0, 0.0, 0.0, 0.0, 0.0, 0.0, 0.0, 0.0, 1.7184675053136253E9, 0.0, 2024-06-15 11:05:05.313
90.0, 72673.2549277848, 59398.330378333376, 74693.33853642209, -187500.02235174447, 108765.80134222524, -187500.02235174447, -167253.25343051594, -187500.02235174447, -0.082, 0.984, 0.106, 192.0, 253.0, 112.0, 30.0, 192.0, 3.0, 80.0, 0.0, 0.0, 0.0, 1.7184675053136342E9, 0.0, 2024-06-15 11:05:05.313
91.0, 72753.90002177954, 59899.94822739938, 75011.53797048783, -187500.02235174447, 108772.08218241719, -187500.02235174447, -167248.24663975797, -187500.02235174447, -0.082, 0.984, 0.106, 192.0, 0.0, 0.0, 0.0, 0.0, 0.0, 0.0, 0.0, 0.0, 0.0, 1.7184675053136432E9, 0.0, 2024-06-15 11:05:05.313
92.0, 72820.23999932289, 61533.83839533787, 76424.68231018572, -187500.02235174447, 108966.40824871162, -187500.02235174447, -166876.42537074393, -187500.02235174447, -0.082, 0.984, 0.106, 192.0, 0.0, 0.0, 0.0, 0.0, 0.0, 0.0, 0.0, 0.0, 0.0, 1.7184675053136518E9, 0.0, 2024-06-15 11:05:05.313
93.0, 72738.25380066082, 61174.243530540894, 76241.97915100804, -187500.02235174447, 109048.1932816736, -187500.02235174447, -166812.99111997976, -187500.02235174447, -0.082, 0.984, 0.106, 192.0, 0.0, 0.0, 0.0, 0.0, 0.0, 0.0, 0.0, 0.0, 0.0, 1.7184675053136609E9, 0.0, 2024-06-15 11:05:05.313
94.0, 72666.72821840385, 59573.948034518726, 74848.23612549737, -187500.02235174447, 108787.21431341342, -187500.02235174447, -167200.92799674606, -187500.02235174447, -0.082, 0.984, 0.106, 192.0, 0.0, 0.0, 0.0, 0.0, 0.0, 0.0, 0.0, 0.0, 0.0, 1.7184675053136697E9, 0.0, 2024-06-15 11:05:05.313
95.0, 72707.67661424597, 59618.87504087389, 74800.58220631865, -187500.02235174447, 108769.37762133809, -187500.02235174447, -167275.56047148234, -187500.02235174447, -0.082, 0.984, 0.106, 192.0, 0.0, 0.0, 0.0, 0.0, 0.0, 0.0, 0.0, 0.0, 0.0, 1.7184675053136785E9, 0.0, 2024-06-15 11:05:05.313
96.0, 72791.00391757535, 61335.91369818613, 76244.48254638702, -187500.02235174447, 108936.45691114152, -187500.02235174447, -166909.05891764868, -187500.02235174447, -0.082, 0.984, 0.106, 192.0, 0.0, 0.0, 0.0, 0.0, 0.0, 0.0, 0.0, 0.0, 0.0, 1.7184675053136876E9, 0.0, 2024-06-15 11:05:05.313
97.0, 72747.61918158761, 61389.64729185669, 76404.94571983168, -187500.02235174447, 109061.35845915777, -187500.02235174447, -166793.9697854483, -187500.02235174447, -0.082, 0.984, 0.106, 192.0, 0.0, 0.0, 0.0, 0.0, 0.0, 0.0, 0.0, 0.0, 0.0, 1.7184675053136964E9, 0.0, 2024-06-15 11:05:05.313
98.0, 72672.33850626212, 59832.71418007782, 75074.972221252, -187500.02235174447, 108814.0811102487, -187500.02235174447, -167151.17301358856, -187500.02235174447, -0.082, 0.984, 0.106, 192.0, 0.0, 0.0, 0.0, 0.0, 0.0, 0.0, 0.0, 0.0, 0.0, 1.7184675053137052E9, 0.0, 2024-06-15 11:05:05.313
99.0, 72714.33743409366, 59428.84050951487, 74657.26282087121, -187500.02235174447, 108741.19207157995, -187500.02235174447, -167341.2969519254, -187500.02235174447, -0.082, 0.984, 0.106, 192.0, 0.0, 0.0, 0.0, 0.0, 0.0, 0.0, 0.0, 0.0, 0.0, 1.718467505313714E9, 0.0, 2024-06-15 11:05:05.313
100.0, 72830.23122909442, 61131.68580909799, 76032.61036069517, -187500.02235174447, 108857.51054972537, -187500.02235174447, -167051.05955017323, -187500.02235174447, -0.074, 0.98, 0.10400000000000001, 192.0, 253.0, 176.0, 30.0, 160.0, 3.0, 64.0, 0.0, 0.0, 0.0, 1.718467505313723E9, 0.0, 2024-06-15 11:05:05.313
101.0, 72768.4733591644, 61577.29018655899, 76562.79373917506, -187500.02235174447, 109069.96388077307, -187500.02235174447, -166802.93283497487, -187500.02235174447, -0.074, 0.98, 0.10400000000000001, 192.0, 0.0, 0.0, 0.0, 0.0, 0.0, 0.0, 0.0, 0.0, 0.0, 1.718467505313732E9, 0.0, 2024-06-15 11:05:05.313
102.0, 72662.48138695734, 60122.81747136325, 75338.52164012453, -187500.02235174447, 108879.45996278049, -187500.02235174447, -167065.07409394672, -187500.02235174447, -0.074, 0.98, 0.10400000000000001, 192.0, 0.0, 0.0, 0.0, 0.0, 0.0, 0.0, 0.0, 0.0, 0.0, 1.7184675053137407E9, 0.0, 2024-06-15 11:05:05.313
103.0, 72677.76998016477, 59309.43749063462, 74574.22609021974, -187500.02235174447, 108758.11234213262, -187500.02235174447, -167329.56228608638, -187500.02235174447, -0.074, 0.98, 0.10400000000000001, 192.0, 0.0, 0.0, 0.0, 0.0, 0.0, 0.0, 0.0, 0.0, 0.0, 1.7184675053137496E9, 0.0, 2024-06-15 11:05:05.313
104.0, 72796.10011531116, 60830.294886862626, 75770.89378486798, -187500.02235174447, 108844.03244781881, -187500.02235174447, -167090.3315651812, -187500.02235174447, -0.074, 0.98, 0.10400000000000001, 192.0, 0.0, 0.0, 0.0, 0.0, 0.0, 0.0, 0.0, 0.0, 0.0, 1.7184675053137584E9, 0.0, 2024-06-15 11:05:05.313
105.0, 72772.09434176616, 61657.3541351979, 76613.04046071059, -187500.02235174447, 109076.33412794283, -187500.02235174447, -166782.369230076, -187500.02235174447, -0.074, 0.98, 0.10400000000000001, 192.0, 0.0, 0.0, 0.0, 0.0, 0.0, 0.0, 0.0, 0.0, 0.0, 1.7184675053137672E9, 0.0, 2024-06-15 11:05:05.313
106.0, 72691.8068756827, 60413.47955626006, 75588.66001232386, -187500.02235174447, 108929.48316687146, -187500.02235174447, -166996.00720357982, -187500.02235174447, -0.074, 0.98, 0.10400000000000001, 192.0, 0.0, 0.0, 0.0, 0.0, 0.0, 0.0, 0.0, 0.0, 0.0, 1.718467505313776E9, 0.0, 2024-06-15 11:05:05.313
107.0, 72680.47454124386, 59259.52604526592, 74551.38260738643, -187500.02235174447, 108750.31158331771, -187500.02235174447, -167330.00932097549, -187500.02235174447, -0.074, 0.98, 0.10400000000000001, 192.0, 0.0, 0.0, 0.0, 0.0, 0.0, 0.0, 0.0, 0.0, 0.0, 1.7184675053137853E9, 0.0, 2024-06-15 11:05:05.313
108.0, 72792.2779670093, 60498.48324042359, 75484.79145584005, -187500.02235174447, 108804.80513629975, -187500.02235174447, -167168.11563588568, -187500.02235174447, -0.074, 0.98, 0.10400000000000001, 192.0, 0.0, 0.0, 0.0, 0.0, 0.0, 0.0, 0.0, 0.0, 0.0, 1.718467505313794E9, 0.0, 2024-06-15 11:05:05.313
109.0, 72805.7337171714, 61697.363757772895, 76601.35049836047, -187500.02235174447, 109043.5888223158, -187500.02235174447, -166815.9191985034, -187500.02235174447, -0.074, 0.98, 0.10400000000000001, 192.0, 0.0, 0.0, 0.0, 0.0, 0.0, 0.0, 0.0, 0.0, 0.0, 1.7184675053138027E9, 0.0, 2024-06-15 11:05:05.313
110.0, 72727.4132046, 60713.50702208365, 75822.07927967064, -187500.02235174447, 108961.28969923136, -187500.02235174447, -166956.37756066056, -187500.02235174447, -0.074, 0.98, 0.10400000000000001, 192.0, 0.0, 0.0, 0.0, 0.0, 0.0, 0.0, 0.0, 0.0, 0.0, 1.7184675053138118E9, 0.0, 2024-06-15 11:05:05.313
111.0, 72683.33556453414, 59300.36268238577, 74593.44859045131, -187500.02235174447, 108736.8111296667, -187500.02235174447, -167342.45924263707, -187500.02235174447, -0.07200000000000001, 0.988, 0.1, 192.0, 253.0, 192.0, 30.0, 224.0, 3.0, 32.0, 0.0, 0.0, 0.0, 1.7184675053138206E9, 0.0, 2024-06-15 11:05:05.313
112.0, 72770.90969931004, 60172.59480626522, 75239.27989474295, -187500.02235174447, 108783.3251098782, -187500.02235174447, -167240.0659012873, -187500.02235174447, -0.07200000000000001, 0.988, 0.1, 192.0, 0.0, 0.0, 0.0, 0.0, 0.0, 0.0, 0.0, 0.0, 0.0, 1.7184675053138294E9, 0.0, 2024-06-15 11:05:05.313
113.0, 72804.95140611546, 61648.52519613805, 76561.60909671892, -187500.02235174447, 109016.65497024715, -187500.02235174447, -166842.7412918498, -187500.02235174447, -0.07200000000000001, 0.988, 0.1, 192.0, 0.0, 0.0, 0.0, 0.0, 0.0, 0.0, 0.0, 0.0, 0.0, 1.7184675053138385E9, 0.0, 2024-06-15 11:05:05.313
114.0, 72717.9137132065, 60984.00783348177, 76091.88718699064, -187500.02235174447, 109023.36049358375, -187500.02235174447, -166872.73733290882, -187500.02235174447, -0.07200000000000001, 0.988, 0.1, 192.0, 0.0, 0.0, 0.0, 0.0, 0.0, 0.0, 0.0, 0.0, 0.0, 1.7184675053138473E9, 0.0, 2024-06-15 11:05:05.313
115.0, 72670.03627658324, 59432.28267816099, 74726.91085659395, -187500.02235174447, 108769.95876669393, -187500.02235174447, -167277.19214882757, -187500.02235174447, -0.07200000000000001, 0.988, 0.1, 192.0, 0.0, 0.0, 0.0, 0.0, 0.0, 0.0, 0.0, 0.0, 0.0, 1.718467505313856E9, 0.0, 2024-06-15 11:05:05.313
116.0, 72751.08370197818, 59873.03672707519, 74993.07542956775, -187500.02235174447, 108772.75273475084, -187500.02235174447, -167292.01135540145, -187500.02235174447, -0.07200000000000001, 0.988, 0.1, 192.0, 0.0, 0.0, 0.0, 0.0, 0.0, 0.0, 0.0, 0.0, 0.0, 1.7184675053138647E9, 0.0, 2024-06-15 11:05:05.313
117.0, 72818.85419116667, 61529.01041853552, 76419.63081593881, -187500.02235174447, 108971.95148133654, -187500.02235174447, -166913.4398595619, -187500.02235174447, -0.07200000000000001, 0.988, 0.1, 192.0, 0.0, 0.0, 0.0, 0.0, 0.0, 0.0, 0.0, 0.0, 0.0, 1.7184675053138735E9, 0.0, 2024-06-15 11:05:05.313
118.0, 72735.03514945926, 61232.87215624716, 76286.23560502953, -187500.02235174447, 109071.23793020702, -187500.02235174447, -166833.7782423232, -187500.02235174447, -0.07200000000000001, 0.988, 0.1, 192.0, 0.0, 0.0, 0.0, 0.0, 0.0, 0.0, 0.0, 0.0, 0.0, 1.7184675053138824E9, 0.0, 2024-06-15 11:05:05.313
119.0, 72652.13252927453, 59627.39105551137, 74892.60433824114, -187500.02235174447, 108818.59616262867, -187500.02235174447, -167203.3643368917, -187500.02235174447, -0.07200000000000001, 0.988, 0.1, 192.0, 0.0, 0.0, 0.0, 0.0, 0.0, 0.0, 0.0, 0.0, 0.0, 1.7184675053138912E9, 0.0, 2024-06-15 11:05:05.313
120.0, 72700.92638742046, 59608.07914830198, 74784.28778461073, -187500.02235174447, 108794.03159547229, -187500.02235174447, -167288.09980012177, -187500.02235174447, -0.07200000000000001, 0.988, 0.1, 192.0, 0.0, 0.0, 0.0, 0.0, 0.0, 0.0, 0.0, 0.0, 0.0, 1.7184675053139005E9, 0.0, 2024-06-15 11:05:05.313
121.0, 72818.9883016334, 61342.88744245618, 76214.06182218336, -187500.02235174447, 108927.18093719256, -187500.02235174447, -166974.5048254138, -187500.02235174447, -0.074, 0.984, 0.11, 192.0, 253.0, 176.0, 30.0, 192.0, 3.0, 112.0, 0.0, 0.0, 0.0, 1.7184675053139093E9, 0.0, 2024-06-15 11:05:05.313
122.0, 72753.83296654618, 61440.56456572587, 76448.41986279725, -187500.02235174447, 109091.6003694058, -187500.02235174447, -166808.34195713306, -187500.02235174447, -0.074, 0.984, 0.11, 192.0, 0.0, 0.0, 0.0, 0.0, 0.0, 0.0, 0.0, 0.0, 0.0, 1.718467505313918E9, 0.0, 2024-06-15 11:05:05.313
123.0, 72680.63100345506, 59898.94239889889, 75111.53967518087, -187500.02235174447, 108846.8934711091, -187500.02235174447, -167153.02820837835, -187500.02235174447, -0.074, 0.984, 0.11, 192.0, 0.0, 0.0, 0.0, 0.0, 0.0, 0.0, 0.0, 0.0, 0.0, 1.7184675053139267E9, 0.0, 2024-06-15 11:05:05.313
124.0, 72706.29080608975, 59455.52849239451, 74642.80124220863, -187500.02235174447, 108760.45927530043, -187500.02235174447, -167363.87221382526, -187500.02235174447, -0.074, 0.984, 0.11, 192.0, 0.0, 0.0, 0.0, 0.0, 0.0, 0.0, 0.0, 0.0, 0.0, 1.7184675053139355E9, 0.0, 2024-06-15 11:05:05.313
125.0, 72821.98343539042, 61128.53421312979, 75995.39470617709, -187500.02235174447, 108875.1013726117, -187500.02235174447, -167070.6396783161, -187500.02235174447, -0.074, 0.984, 0.11, 192.0, 0.0, 0.0, 0.0, 0.0, 0.0, 0.0, 0.0, 0.0, 0.0, 1.7184675053139448E9, 0.0, 2024-06-15 11:05:05.313
126.0, 72778.71045812493, 61613.00827419857, 76567.68877121077, -187500.02235174447, 109074.7471540865, -187500.02235174447, -166839.65675111493, -187500.02235174447, -0.074, 0.984, 0.11, 192.0, 0.0, 0.0, 0.0, 0.0, 0.0, 0.0, 0.0, 0.0, 0.0, 1.7184675053139536E9, 0.0, 2024-06-15 11:05:05.313
127.0, 72670.907994617, 60171.67838474255, 75371.80338761848, -187500.02235174447, 108883.68444248252, -187500.02235174447, -167111.72218462493, -187500.02235174447, -0.074, 0.984, 0.11, 192.0, 0.0, 0.0, 0.0, 0.0, 0.0, 0.0, 0.0, 0.0, 0.0, 1.7184675053139627E9, 0.0, 2024-06-15 11:05:05.313
128.0, 72663.97895383585, 59294.46182184957, 74574.22609021974, -187500.02235174447, 108756.52536827629, -187500.02235174447, -167392.97418510608, -187500.02235174447, -0.074, 0.984, 0.11, 192.0, 0.0, 0.0, 0.0, 0.0, 0.0, 0.0, 0.0, 0.0, 0.0, 1.7184675053139715E9, 0.0, 2024-06-15 11:05:05.313
129.0, 72776.6764493795, 60793.302749789094, 75753.3253137261, -187500.02235174447, 108846.17821528652, -187500.02235174447, -167152.71528395597, -187500.02235174447, -0.074, 0.984, 0.11, 192.0, 0.0, 0.0, 0.0, 0.0, 0.0, 0.0, 0.0, 0.0, 0.0, 1.7184675053139803E9, 0.0, 2024-06-15 11:05:05.313
130.0, 72757.7221700814, 61686.76903090108, 76634.00639700967, -187500.02235174447, 109085.7442123585, -187500.02235174447, -166835.40991966843, -187500.02235174447, -0.074, 0.984, 0.11, 192.0, 0.0, 0.0, 0.0, 0.0, 0.0, 0.0, 0.0, 0.0, 0.0, 1.7184675053139892E9, 0.0, 2024-06-15 11:05:05.313
131.0, 72669.23161378285, 60464.84386501835, 75633.07292855656, -187500.02235174447, 108954.98650729496, -187500.02235174447, -167027.14318360607, -187500.02235174447, -0.076, 0.986, 0.10400000000000001, 192.0, 253.0, 160.0, 30.0, 208.0, 3.0, 64.0, 0.0, 0.0, 0.0, 1.718467505313998E9, 0.0, 2024-06-15 11:05:05.313
132.0, 72655.93232583193, 59273.22766461703, 74564.72659882625, -187500.02235174447, 108774.74204000736, -187500.02235174447, -167369.43779819465, -187500.02235174447, -0.076, 0.986, 0.10400000000000001, 192.0, 0.0, 0.0, 0.0, 0.0, 0.0, 0.0, 0.0, 0.0, 0.0, 1.7184675053140068E9, 0.0, 2024-06-15 11:05:05.314
133.0, 72782.28673723778, 60480.15480997024, 75466.26185968661, -187500.02235174447, 108812.18121197, -187500.02235174447, -167238.45657568655, -187500.02235174447, -0.076, 0.986, 0.10400000000000001, 192.0, 0.0, 0.0, 0.0, 0.0, 0.0, 0.0, 0.0, 0.0, 0.0, 1.718467505314016E9, 0.0, 2024-06-15 11:05:05.314
134.0, 72787.09236229568, 61704.5163159986, 76621.3329579035, -187500.02235174447, 109053.42358987614, -187500.02235174447, -166875.03956258768, -187500.02235174447, -0.076, 0.986, 0.10400000000000001, 192.0, 0.0, 0.0, 0.0, 0.0, 0.0, 0.0, 0.0, 0.0, 0.0, 1.7184675053140247E9, 0.0, 2024-06-15 11:05:05.314
135.0, 72698.89237867504, 60756.31061271556, 75882.51839667778, -187500.02235174447, 108991.26338854592, -187500.02235174447, -166994.84491286814, -187500.02235174447, -0.076, 0.986, 0.10400000000000001, 192.0, 0.0, 0.0, 0.0, 0.0, 0.0, 0.0, 0.0, 0.0, 0.0, 1.7184675053140335E9, 0.0, 2024-06-15 11:05:05.314
136.0, 72653.74185487532, 59328.12354899926, 74631.53596300316, -187500.02235174447, 108788.44365935847, -187500.02235174447, -167341.07343448084, -187500.02235174447, -0.076, 0.986, 0.10400000000000001, 192.0, 0.0, 0.0, 0.0, 0.0, 0.0, 0.0, 0.0, 0.0, 0.0, 1.7184675053140423E9, 0.0, 2024-06-15 11:05:05.314
137.0, 72759.46560614892, 60149.28193679833, 75203.003013492, -187500.02235174447, 108808.29200843479, -187500.02235174447, -167275.02402961542, -187500.02235174447, -0.076, 0.986, 0.10400000000000001, 192.0, 0.0, 0.0, 0.0, 0.0, 0.0, 0.0, 0.0, 0.0, 0.0, 1.7184675053140512E9, 0.0, 2024-06-15 11:05:05.314
138.0, 72807.05247009426, 61648.52519613805, 76535.8151836175, -187500.02235174447, 109027.07088316332, -187500.02235174447, -166898.0395076322, -187500.02235174447, -0.076, 0.986, 0.10400000000000001, 192.0, 0.0, 0.0, 0.0, 0.0, 0.0, 0.0, 0.0, 0.0, 0.0, 1.71846750531406E9, 0.0, 2024-06-15 11:05:05.314
139.0, 72720.17123939648, 61022.385778711534, 76099.71029755, -187500.02235174447, 109037.01740944594, -187500.02235174447, -166934.98694121683, -187500.02235174447, -0.076, 0.986, 0.10400000000000001, 192.0, 0.0, 0.0, 0.0, 0.0, 0.0, 0.0, 0.0, 0.0, 0.0, 1.718467505793744E9, 0.0, 2024-06-15 11:05:05.793
140.0, 72660.51443344528, 59462.636347131294, 74737.86321137706, -187500.02235174447, 108781.6263772996, -187500.02235174447, -167340.71580656955, -187500.02235174447, -0.076, 0.986, 0.10400000000000001, 192.0, 0.0, 0.0, 0.0, 0.0, 0.0, 0.0, 0.0, 0.0, 0.0, 1.718467505793886E9, 0.0, 2024-06-15 11:05:05.793
141.0, 72741.78537628477, 59859.64803214646, 74968.80143508929, -187500.02235174447, 108777.91598772001, -187500.02235174447, -167365.77211210396, -187500.02235174447, -0.074, 0.988, 0.108, 192.0, 253.0, 176.0, 30.0, 224.0, 3.0, 96.0, 0.0, 0.0, 0.0, 1.7184675057938972E9, 0.0, 2024-06-15 11:05:05.793
142.0, 72826.67730172603, 61541.259174497034, 76413.57349319142, -187500.02235174447, 108958.36162070771, -187500.02235174447, -167016.34729103415, -187500.02235174447, -0.074, 0.988, 0.108, 192.0, 0.0, 0.0, 0.0, 0.0, 0.0, 0.0, 0.0, 0.0, 0.0, 1.718467505793908E9, 0.0, 2024-06-15 11:05:05.793
143.0, 72748.51325136582, 61285.30934873931, 76329.95561718413, -187500.02235174447, 109051.72485729754, -187500.02235174447, -166956.62342984957, -187500.02235174447, -0.074, 0.988, 0.108, 192.0, 0.0, 0.0, 0.0, 0.0, 0.0, 0.0, 0.0, 0.0, 0.0, 1.7184675057939181E9, 0.0, 2024-06-15 11:05:05.793
144.0, 72662.92842184645, 59667.221864130726, 74951.97057151444, -187500.02235174447, 108808.7837468128, -187500.02235174447, -167318.20759990308, -187500.02235174447, -0.074, 0.988, 0.108, 192.0, 0.0, 0.0, 0.0, 0.0, 0.0, 0.0, 0.0, 0.0, 0.0, 1.7184675057939281E9, 0.0, 2024-06-15 11:05:05.793
145.0, 72710.53763753625, 59593.438755683754, 74802.52680808626, -187500.02235174447, 108781.06758368821, -187500.02235174447, -167412.263740571, -187500.02235174447, -0.074, 0.988, 0.108, 192.0, 0.0, 0.0, 0.0, 0.0, 0.0, 0.0, 0.0, 0.0, 0.0, 1.7184675057939382E9, 0.0, 2024-06-15 11:05:05.793
146.0, 72814.42854576452, 61323.88845966917, 76226.60115082278, -187500.02235174447, 108937.88742278665, -187500.02235174447, -167062.70480903445, -187500.02235174447, -0.074, 0.988, 0.108, 192.0, 0.0, 0.0, 0.0, 0.0, 0.0, 0.0, 0.0, 0.0, 0.0, 1.718467505793949E9, 0.0, 2024-06-15 11:05:05.793
147.0, 72764.29358295126, 61468.43719106165, 76482.03688645804, -187500.02235174447, 109099.55759043188, -187500.02235174447, -166900.7887722002, -187500.02235174447, -0.074, 0.988, 0.108, 192.0, 0.0, 0.0, 0.0, 0.0, 0.0, 0.0, 0.0, 0.0, 0.0, 1.718467505793959E9, 0.0, 2024-06-15 11:05:05.793
